G:\BEAR_storage\User_Experiments\20220317_arneodo\Bpm\file(1)_bpm_0034.txt
Ring Energy (GeV): 2
Lifetime (hours): 14.7467
Scan beginning: 3/18/2022	4:01:07 PM
Ring current (mA): 309.21
Source position: x (mm): 0.004 x' (mrad): -0.001 y (mm): 0.007 y' (mrad): 0
Scan end: 3/18/2022	4:05:18 PM
Ring current (mA): 309.02
Source position: x (mm): 0.004 x' (mrad): -0 y (mm): 0.009 y' (mrad): 0.002

SCAN TYPE: Kinetic Energy Electron analyzer 

FILE INFO: FILE INFO:

SCAN PARAMETERS
waiting time (ms): 1000
Number of scans: 1
Current scan number: 1
DARK OFF 
PREDARK OFF 

SCAN PARAMETERS
Initial Kinetik Energy (eV): 120.000
Final Kinetic Energy (eV): 160.000
Delta Kinetic Energy (eV): 0.500
Pass Energy (eV): 50.000
Number of regions: 1.000
Number of points: 81.00
Initial Z manipulator: -6.600

BEAR MONOCHROMATOR CONFIGURATION: 
Current Grating Position:     -2216.70
Current Mirror Position: 126873.2
Current Grating: G1200
P2 phiz position:  0.0000
Mono axis position: 25.0000
Current Photon Energy (eV): 399.988
Current Deviation Angle: 164.000
Vertical Exit Slits (um): 450.000
Exit slit y axis position: 2.2375
Horizontal Exit Slits (um):  889.156
Exit slit z axis position: 1.9229
Mitutoyo position (mm): 

Dose on sample (mJ/cm^2): NaN

ENERGY CALIBRATION:
offset grating G1200: yes
Delta 0 order G1200:  -800.0
offset grating G1800: not
Delta 0 order G1800:  0.0
offset grating GNIM: not
Delta 0 order GNIM:  0.0
ZERO ORDER POSITIONS:
Grating G1200: Mirror position:  4938.0
Grating position: -105355.0
Grating G1800: 
Mirror position:  4938.0
Grating position: -106345.0
Grating GNIM: 
Mirror position:  10000.0
Grating position: 227300.0

Initial filter: Full Beam

EXPERIMENTAL CHAMBER CONFIGURATION: 
PsiC (deg):   -0.000186
Phi Analyzer (degrees): 89.992308
Theta Manipulator (degrees): -44.000040
Theta Analyzer (degrees): -135.001450
PhiM (degrees): -0.005129
XM (mm): 0.000813
YM (mm): 19.932987
ZM (mm): (Warning: for kinetic energy scans, 
this parameter is given in the scan settings) 
-6.601313
TiltM (°): 0.000138

ELECTRON ANALYZER CONFIGURATION: 
Current Kinetik energy (eV): 141.5
Mode: DE = COST
Pass Energy (eV):  50.000
CEM: ON
Bias Front-Back CEM (V): 3499.561
Bias Back-Collector CEM (V): 100.874
Bias Retard-Front CEM: 100.087COIL VALUES
Ix (amps):2.820
Iy (amps): 6.789
Iz (amps): 37.337

POLARIZATION SELECTOR CONFIGURATION:
Psi1 (rad): -0.001665535
Psi2 (rad): 0.001417093
Z min position (mm): 46.599650
DZ position (mm): 18.599100
Zmin 0 (mm): 66.500000
DZ0 (mm): 53.000000

BEAM SELECTOR CONFIGURATION:
Zmin position (mm): NaN
DZ position (mm): NaN
Y+ position (mm): NaN
Y- position (mm): NaN

CHANNEL ELECTRON MULTIPLIER CONFIGURATION:
CEM configured: OFF
Bias CEM: 0.000000

FLUORESCENCE DETECTOR CONFIGURATION:
Not configured

LUMINESCENCE MONOCHROMATOR CONFIGURATION:
Optical fiber position (mm): 0.000000
Optical fiber Switch inside: OFF
Optical fiber Switch outside: ON
Monochromator wavelength (A): 0.000000
Limit Switches: ON

I0 MONITOR PARAMETERS:
I0 detector position(mm): -1.924999E+2
Lower switch: OFF
Upper switch: OFF
Valve status:open

PRESSURE PARAMETERS:
Monitor chamber pressure (mbar): 9.247e-10
Experimental chamber pressure -ION GAUGE-(mbar): 0.000000E+0

XMCD PARAMETERS:
Xmcd OFF
Xmcd Direction -
Xmcd current (A): 0.000000

Gated scan off

Instrument 1: AMMETER KEITHLEY 6517A B
Measure type: Current
range type: set range value
range value (ampere):  200 pA
Integration time:  set NPLC value
NPLC value: 10.000
Digital filter count: 2
SAMPLE BIAS (V): -30.000
Vsource: ON
Output Voltage value: 30.000
Vsource range: 1000 V

Range Keithley B changed to 20 nA

Range Keithley B changed to 200 pA

Range Keithley B changed to 20 nA

Range Keithley B changed to 200 pA

Range Keithley B changed to 20 nA

Range Keithley B changed to 200 pA

Range Keithley B changed to 20 nA

Range Keithley B changed to 200 nA

Range Keithley B changed to 200 pA

Range Keithley B changed to 20 nA

Range Keithley B changed to 200 pA

Range Keithley B changed to 20 nA

Range Keithley B changed to 200 pA

Range Keithley B changed to 20 nA

Instrument 2: AMMETER KEITHLEY 6517A A
Measure type: Current
range type: set range value
range value (ampere):  200 nA
Integration time:  set NPLC value
NPLC value: 10.000
Digital filter count: 2
Vsource: OFF
Output Voltage value: -0.000
Vsource range: 100 V
Trigger source: bus

Range Keithley A changed to 20 nA

Range Keithley A changed to 200 nA

Range Keithley A changed to 200 pA

Range Keithley A changed to 20 nA

Range Keithley A changed to 200 pA

Range Keithley A changed to 20 nA

Range Keithley A changed to 200 nA

Range Keithley A changed to 200 pA

Range Keithley A changed to 20 nA

Range Keithley A changed to 200 pA

Range Keithley A changed to 20 nA

Range Keithley A changed to 200 nA

Range Keithley A changed to 200 pA

Range Keithley A changed to 20 nA

Range Keithley A changed to 200 pA

Range Keithley A changed to 20 nA

Range Keithley A changed to 200 pA

Range Keithley A changed to 20 nA

Range Keithley A changed to 200 pA

Range Keithley A changed to 20 nA

Range Keithley A changed to 200 pA

Range Keithley A changed to 20 nA

Range Keithley A changed to 200 nA

Range Keithley A changed to 200 pA

Range Keithley A changed to 20 nA

Range Keithley A changed to 200 pA

Range Keithley A changed to 20 nA

Range Keithley A changed to 200 nA

Range Keithley A changed to 200 pA

Range Keithley A changed to 20 nA

Range Keithley A changed to 200 nA

Range Keithley A changed to 200 pA

Range Keithley A changed to 20 nA

Range Keithley A changed to 200 pA

Range Keithley A changed to 20 nA

Range Keithley A changed to 200 pA

Range Keithley A changed to 20 nA

Instrument 3: COUNTER ORTEC 996Integration time (sec): 1.000


________________________________________________________________________________

RelativeTime (msec)	Photon Energy (eV)	Time (msec)	Electron Analyzer Kinetic Energy (eV)	a) I_1 (Amps)	b) I_2 (Amps)	d) I_3 (Amps)	c) I_4 (Amps)	I_BPM_sum (Amps)	Delta Z(mm)	
________________________________________________________________________________

4.08300000E+3	3.99988148E+2	1.89943725E+8	1.20000000E+2	1.38744490E-5	9.92771505E-6	3.63399251E-5	2.94779038E-5	8.96199929E-5	4.79251299E-4
8.94600000E+3	3.99988148E+2	1.89948588E+8	1.20500000E+2	1.39687048E-5	9.90714847E-6	3.62871392E-5	2.97342753E-5	8.98972678E-5	4.80734052E-4
1.31500000E+4	3.99988148E+2	1.89952792E+8	1.21000000E+2	1.38540374E-5	9.90978896E-6	3.62784131E-5	2.93512737E-5	8.93935131E-5	4.78040177E-4
1.73210000E+4	3.99988148E+2	1.89956963E+8	1.21500000E+2	1.39128642E-5	9.85140918E-6	3.60171093E-5	2.95465475E-5	8.93279301E-5	4.77689466E-4
2.14540000E+4	3.99988148E+2	1.89961096E+8	1.22000000E+2	1.37979405E-5	9.92861508E-6	3.62474693E-5	2.94330245E-5	8.94070493E-5	4.78112563E-4
2.55920000E+4	3.99988148E+2	1.89965234E+8	1.22500000E+2	1.39483945E-5	9.92434441E-6	3.63316728E-5	2.93435370E-5	8.95479488E-5	4.78866036E-4
2.97240000E+4	3.99988148E+2	1.89969366E+8	1.23000000E+2	1.39691369E-5	9.95364308E-6	3.64037349E-5	2.94846778E-5	8.98111927E-5	4.80273758E-4
3.38930000E+4	3.99988148E+2	1.89973535E+8	1.23500000E+2	1.39101581E-5	9.91293906E-6	3.59813137E-5	2.95230930E-5	8.93275040E-5	4.77687187E-4
3.80680000E+4	3.99988148E+2	1.89977710E+8	1.24000000E+2	1.40575008E-5	9.82217310E-6	3.63307728E-5	2.93720221E-5	8.95824688E-5	4.79050635E-4
4.21680000E+4	3.99988148E+2	1.89981810E+8	1.24500000E+2	1.37869434E-5	9.87572490E-6	3.61871733E-5	2.97010338E-5	8.95508754E-5	4.78881686E-4
4.62990000E+4	3.99988148E+2	1.89985941E+8	1.25000000E+2	1.38960885E-5	9.89767133E-6	3.61968203E-5	2.96739703E-5	8.96645504E-5	4.79489574E-4
5.04340000E+4	3.99988148E+2	1.89990076E+8	1.25500000E+2	1.38884650E-5	9.87247346E-6	3.60621615E-5	2.95133954E-5	8.93364953E-5	4.77735269E-4
5.45750000E+4	3.99988148E+2	1.89994217E+8	1.26000000E+2	1.37990014E-5	9.91231917E-6	3.63176628E-5	2.95614099E-5	8.95903933E-5	4.79093012E-4
5.86780000E+4	3.99988148E+2	1.89998320E+8	1.26500000E+2	1.38737904E-5	9.89150523E-6	3.63043560E-5	2.94913923E-5	8.95610439E-5	4.78936064E-4
6.28110000E+4	3.99988148E+2	1.90002453E+8	1.27000000E+2	1.38451444E-5	9.89759980E-6	3.63647534E-5	2.95987164E-5	8.97062140E-5	4.79712375E-4
6.70150000E+4	3.99988148E+2	1.90006657E+8	1.27500000E+2	1.38296174E-5	9.93264734E-6	3.60095544E-5	2.97492301E-5	8.95210492E-5	4.78722188E-4
7.11570000E+4	3.99988148E+2	1.90010799E+8	1.28000000E+2	1.39391111E-5	9.95320498E-6	3.62931444E-5	2.95439398E-5	8.97294002E-5	4.79836365E-4
7.52880000E+4	3.99988148E+2	1.90014930E+8	1.28500000E+2	1.38669627E-5	9.86039160E-6	3.61736073E-5	2.92176162E-5	8.91185777E-5	4.76569934E-4
7.94280000E+4	3.99988148E+2	1.90019070E+8	1.29000000E+2	1.37191699E-5	9.82205389E-6	3.61342026E-5	2.94518208E-5	8.91272472E-5	4.76616295E-4
8.35960000E+4	3.99988148E+2	1.90023238E+8	1.29500000E+2	1.38416366E-5	9.79531226E-6	3.63661184E-5	2.93279683E-5	8.93310355E-5	4.77706072E-4
8.77690000E+4	3.99988148E+2	1.90027411E+8	1.30000000E+2	1.39189469E-5	9.88528846E-6	3.62207158E-5	2.94763809E-5	8.95013320E-5	4.78616749E-4
9.19030000E+4	3.99988148E+2	1.90031545E+8	1.30500000E+2	1.38798522E-5	9.94279205E-6	3.60923035E-5	2.94127231E-5	8.93276709E-5	4.77688079E-4
9.60440000E+4	3.99988148E+2	1.90035686E+8	1.31000000E+2	1.39104383E-5	9.91193770E-6	3.61133171E-5	2.95470154E-5	8.94827085E-5	4.78517158E-4
1.00228000E+5	3.99988148E+2	1.90039870E+8	1.31500000E+2	1.38586925E-5	9.87132309E-6	3.61909880E-5	2.93766355E-5	8.92976390E-5	4.77527482E-4
1.04407000E+5	3.99988148E+2	1.90044049E+8	1.32000000E+2	1.38639198E-5	9.86775874E-6	3.63018616E-5	2.94963365E-5	8.95298767E-5	4.78769394E-4
1.08520000E+5	3.99988148E+2	1.90048162E+8	1.32500000E+2	1.39278518E-5	9.89549874E-6	3.59944714E-5	2.93166404E-5	8.91344624E-5	4.76654879E-4
1.12649000E+5	3.99988148E+2	1.90052291E+8	1.33000000E+2	1.39211880E-5	9.86471592E-6	3.63132401E-5	2.96490466E-5	8.97481906E-5	4.79936848E-4
1.16807000E+5	3.99988148E+2	1.90056449E+8	1.33500000E+2	1.38440834E-5	9.89602922E-6	3.61415012E-5	2.96025073E-5	8.94841211E-5	4.78524712E-4
1.21034000E+5	3.99988148E+2	1.90060676E+8	1.34000000E+2	1.37231545E-5	9.94203209E-6	3.63102420E-5	2.96001827E-5	8.95756113E-5	4.79013964E-4
1.25199000E+5	3.99988148E+2	1.90064841E+8	1.34500000E+2	1.38245539E-5	9.90666567E-6	3.59776570E-5	2.94399624E-5	8.91488390E-5	4.76731759E-4
1.29352000E+5	3.99988148E+2	1.90068994E+8	1.35000000E+2	1.39195846E-5	9.85233603E-6	3.61312194E-5	2.95341646E-5	8.94373047E-5	4.78274357E-4
1.33497000E+5	3.99988148E+2	1.90073139E+8	1.35500000E+2	1.38813512E-5	9.90855514E-6	3.61068709E-5	2.93709343E-5	8.92677116E-5	4.77367441E-4
1.37666000E+5	3.99988148E+2	1.90077308E+8	1.36000000E+2	1.36860447E-5	9.90539311E-6	3.60783203E-5	2.94560587E-5	8.91258167E-5	4.76608646E-4
1.41804000E+5	3.99988148E+2	1.90081446E+8	1.36500000E+2	1.37364404E-5	9.87220524E-6	3.62310334E-5	2.91997617E-5	8.90394406E-5	4.76146741E-4
1.45989000E+5	3.99988148E+2	1.90085631E+8	1.37000000E+2	1.38457851E-5	9.83360229E-6	3.59206511E-5	2.92769884E-5	8.88770269E-5	4.75278219E-4
1.50164000E+5	3.99988148E+2	1.90089806E+8	1.37500000E+2	1.38977395E-5	9.89332615E-6	3.63529904E-5	2.96055501E-5	8.97496062E-5	4.79944418E-4
1.54323000E+5	3.99988148E+2	1.90093965E+8	1.38000000E+2	1.39034824E-5	9.97547924E-6	3.60503031E-5	2.94381475E-5	8.93674123E-5	4.77900600E-4
1.58461000E+5	3.99988148E+2	1.90098103E+8	1.38500000E+2	1.38687448E-5	9.88262116E-6	3.60318286E-5	2.93732172E-5	8.91564118E-5	4.76772256E-4
1.62592000E+5	3.99988148E+2	1.90102234E+8	1.39000000E+2	1.37948857E-5	9.88037108E-6	3.60638959E-5	2.93905472E-5	8.91297000E-5	4.76629412E-4
1.66743000E+5	3.99988148E+2	1.90106385E+8	1.39500000E+2	1.39543043E-5	9.87281619E-6	3.61538930E-5	2.93523913E-5	8.93334048E-5	4.77718742E-4
1.70898000E+5	3.99988148E+2	1.90110540E+8	1.40000000E+2	1.39356034E-5	9.95059728E-6	3.60324038E-5	2.95459186E-5	8.94645231E-5	4.78419910E-4
1.75065000E+5	3.99988148E+2	1.90114707E+8	1.40500000E+2	1.38872253E-5	9.88469540E-6	3.61797018E-5	2.94955408E-5	8.94471633E-5	4.78327076E-4
1.79188000E+5	3.99988148E+2	1.90118830E+8	1.41000000E+2	1.38969349E-5	9.92425500E-6	3.62840487E-5	2.95487916E-5	8.96540302E-5	4.79433316E-4
1.83368000E+5	3.99988148E+2	1.90123010E+8	1.41500000E+2	1.38744997E-5	9.93979990E-6	3.62849428E-5	2.96859151E-5	8.97851574E-5	4.80134532E-4
1.87515000E+5	3.99988148E+2	1.90127157E+8	1.42000000E+2	1.39039533E-5	9.91291820E-6	3.62952097E-5	2.95047259E-5	8.96168071E-5	4.79234262E-4
1.91643000E+5	3.99988148E+2	1.90131285E+8	1.42500000E+2	1.37766735E-5	9.88414107E-6	3.61991449E-5	2.94716781E-5	8.93316375E-5	4.77709292E-4
1.95778000E+5	3.99988148E+2	1.90135420E+8	1.43000000E+2	1.39193730E-5	9.89527224E-6	3.62394555E-5	2.96275413E-5	8.96816420E-5	4.79580973E-4
1.99937000E+5	3.99988148E+2	1.90139579E+8	1.43500000E+2	1.40310006E-5	9.97831344E-6	3.63244875E-5	2.94648831E-5	8.97986847E-5	4.80206870E-4
2.04081000E+5	3.99988148E+2	1.90143723E+8	1.44000000E+2	1.38170318E-5	9.87198470E-6	3.62577899E-5	2.97356522E-5	8.96824586E-5	4.79585340E-4
2.08187000E+5	3.99988148E+2	1.90147829E+8	1.44500000E+2	1.39572250E-5	9.89284335E-6	3.61661537E-5	2.96082651E-5	8.96244871E-5	4.79275332E-4
2.12312000E+5	3.99988148E+2	1.90151954E+8	1.45000000E+2	1.39129745E-5	9.82867298E-6	3.62932964E-5	2.95112317E-5	8.95461755E-5	4.78856554E-4
2.17275000E+5	3.99988148E+2	1.90156917E+8	1.45500000E+2	1.39052497E-5	9.92459177E-6	3.61367954E-5	2.95456087E-5	8.95122456E-5	4.78675110E-4
2.21417000E+5	3.99988148E+2	1.90161059E+8	1.46000000E+2	1.39473604E-5	9.90895747E-6	3.63960280E-5	2.94456249E-5	8.96979707E-5	4.79668293E-4
2.25598000E+5	3.99988148E+2	1.90165240E+8	1.46500000E+2	1.39498668E-5	9.92392718E-6	3.63034470E-5	2.96210771E-5	8.97983181E-5	4.80204910E-4
2.29737000E+5	3.99988148E+2	1.90169379E+8	1.47000000E+2	1.38276176E-5	9.90947007E-6	3.62879498E-5	2.95296168E-5	8.95546543E-5	4.78901895E-4
2.33903000E+5	3.99988148E+2	1.90173545E+8	1.47500000E+2	1.40881645E-5	9.93767797E-6	3.62599535E-5	2.94725274E-5	8.97583234E-5	4.79991034E-4
2.38066000E+5	3.99988148E+2	1.90177708E+8	1.48000000E+2	1.38685720E-5	9.87153469E-6	3.61661418E-5	2.94508999E-5	8.93571483E-5	4.77845713E-4
2.42201000E+5	3.99988148E+2	1.90181843E+8	1.48500000E+2	1.38773458E-5	9.87900315E-6	3.62360759E-5	2.94082528E-5	8.94006776E-5	4.78078490E-4
2.46325000E+5	3.99988148E+2	1.90185967E+8	1.49000000E+2	1.38739722E-5	9.99640048E-6	3.61042632E-5	2.92908256E-5	8.92654615E-5	4.77355409E-4
2.50497000E+5	3.99988148E+2	1.90190139E+8	1.49500000E+2	1.39449702E-5	9.89114462E-6	3.62932904E-5	2.93866848E-5	8.95160901E-5	4.78695669E-4
