G:\BEAR_storage\User_Experiments\20220317_arneodo\Bpm\file(1)_bpm_0038.txt
Ring Energy (GeV): 2
Lifetime (hours): 0
Scan beginning: 3/18/2022	6:06:32 PM
Ring current (mA): 0
Source position: x (mm): 1.535 x' (mrad): -0.647 y (mm): 0.31 y' (mrad): 0.391
Scan end: 3/18/2022	6:11:39 PM
Ring current (mA): 2.57
Source position: x (mm): -0.663 x' (mrad): 0.453 y (mm): 0.537 y' (mrad): 0.117

SCAN TYPE: PHOTON ENERGY VS VAR_1 VS VAR_2

FILE INFO: FILE INFO:

SCAN PARAMETERS
waiting time (ms): 0
Number of scans: 1
Current scan number: 1
DARK OFF 
PREDARK OFF 

SCAN PARAMETERS
Regions configuration: 
number of regions: 6
Mirror grating scan: on
Timed acquisition: off
Region 1:
Initial energy (eV): 40.000000
Final energy (eV): 72.000000
Delta energy (eV): 1.000000
Deviation angle choice: Higher order rejection
Deviation angle (°): NaN
Al filter
G1200 channel
range keithley B 20 nA
range keithley C 200 nA
range keithley A 20 nA
Var_1: PsiC 0.000000
Var_2: PhiM0.000000
Bias CEM (V): 0.000000
Bias Keithley B (V): -30.000000
Name region: 
Region 2:
Initial energy (eV): 70.000000
Final energy (eV): 102.000000
Delta energy (eV): 1.000000
Deviation angle choice: Higher order rejection
Deviation angle (°): NaN
Si filter
G1200 channel
range keithley B 20 nA
range keithley C 200 nA
range keithley A 20 nA
Var_1: PsiC 0.000000
Var_2: PhiM0.000000
Bias CEM (V): 0.000000
Bias Keithley B (V): -30.000000
Name region: 
Region 3:
Initial energy (eV): 98.000000
Final energy (eV): 260.000000
Delta energy (eV): 1.000000
Deviation angle choice: Higher order rejection
Deviation angle (°): NaN
Full Beam
G1200 channel
range keithley B 20 nA
range keithley C 200 nA
range keithley A 200 nA
Var_1: PsiC 0.000000
Var_2: PhiM0.000000
Bias CEM (V): 0.000000
Bias Keithley B (V): -30.000000
Name region: 
Region 4:
Initial energy (eV): 255.000000
Final energy (eV): 320.000000
Delta energy (eV): 1.000000
Deviation angle choice: Higher order rejection
Deviation angle (°): NaN
filter Ag 0.6 um
G1200 channel
range keithley B 200 pA
range keithley C 200 nA
range keithley A 200 pA
Var_1: PsiC 0.000000
Var_2: PhiM0.000000
Bias CEM (V): 0.000000
Bias Keithley B (V): -30.000000
Name region: 
Region 5:
Initial energy (eV): 315.000000
Final energy (eV): 1200.000000
Delta energy (eV): 5.000000
Deviation angle choice: Higher order rejection
Deviation angle (°): NaN
Full Beam
G1200 channel
range keithley B 20 nA
range keithley C 200 nA
range keithley A 20 nA
Var_1: PsiC 0.000000
Var_2: PhiM0.000000
Bias CEM (V): 0.000000
Bias Keithley B (V): -30.000000
Name region: 
Region 6:
Initial energy (eV): 1190.000000
Final energy (eV): 1500.000000
Delta energy (eV): 5.000000
Deviation angle choice: Higher order rejection
Deviation angle (°): NaN
filter Ag 0.6 um
G1200 channel
range keithley B 200 pA
range keithley C 200 nA
range keithley A 200 pA
Var_1: PsiC 0.000000
Var_2: PhiM0.000000
Bias CEM (V): 0.000000
Bias Keithley B (V): -30.000000
Name region: 

BEAR MONOCHROMATOR CONFIGURATION: 
Current Grating Position:     -181699.20
Current Mirror Position: 2556.9
Current Grating: G1200
P2 phiz position:  0.0000
Mono axis position: 25.0000
Current Photon Energy (eV): 70.000
Current Deviation Angle: 155.000
Vertical Exit Slits (um): 450.000
Exit slit y axis position: 2.2375
Horizontal Exit Slits (um):  889.156
Exit slit z axis position: 1.9229
Mitutoyo position (mm): 

Dose on sample (mJ/cm^2): NaN

ENERGY CALIBRATION:
offset grating G1200: yes
Delta 0 order G1200:  -800.0
offset grating G1800: not
Delta 0 order G1800:  0.0
offset grating GNIM: not
Delta 0 order GNIM:  0.0
ZERO ORDER POSITIONS:
Grating G1200: Mirror position:  4938.0
Grating position: -105355.0
Grating G1800: 
Mirror position:  4938.0
Grating position: -106345.0
Grating GNIM: 
Mirror position:  10000.0
Grating position: 227300.0

Initial filter: Si filter

EXPERIMENTAL CHAMBER CONFIGURATION: 
PsiC (deg):   -0.000186
Phi Analyzer (degrees): 89.992308
Theta Manipulator (degrees): -44.000040
Theta Analyzer (degrees): -135.001468
PhiM (degrees): -0.002051
XM (mm): 0.000750
YM (mm): 19.932987
ZM (mm): (Warning: for kinetic energy scans, 
this parameter is given in the scan settings) 
-6.601438
TiltM (°): 0.000138

ELECTRON ANALYZER CONFIGURATION: 
Current Kinetik energy (eV): 35.0
Mode: DE = COST
Pass Energy (eV):  50.000
CEM: ON
Bias Front-Back CEM (V): 3499.561
Bias Back-Collector CEM (V): 100.874
Bias Retard-Front CEM: 100.087COIL VALUES
Ix (amps):2.820
Iy (amps): 6.789
Iz (amps): 37.337

POLARIZATION SELECTOR CONFIGURATION:
Psi1 (rad): -0.001665535
Psi2 (rad): 0.001417093
Z min position (mm): 46.599650
DZ position (mm): 18.599100
Zmin 0 (mm): 66.500000
DZ0 (mm): 53.000000

BEAM SELECTOR CONFIGURATION:
Zmin position (mm): NaN
DZ position (mm): NaN
Y+ position (mm): NaN
Y- position (mm): NaN

CHANNEL ELECTRON MULTIPLIER CONFIGURATION:
CEM configured: OFF
Bias CEM: 0.000000

FLUORESCENCE DETECTOR CONFIGURATION:
Not configured

LUMINESCENCE MONOCHROMATOR CONFIGURATION:
Optical fiber position (mm): 0.000000
Optical fiber Switch inside: OFF
Optical fiber Switch outside: ON
Monochromator wavelength (A): 0.000000
Limit Switches: ON

I0 MONITOR PARAMETERS:
I0 detector position(mm): -0.000000E+0
Lower switch: OFF
Upper switch: OFF
Valve status:open

PRESSURE PARAMETERS:
Monitor chamber pressure (mbar): 9.543e-10
Experimental chamber pressure -ION GAUGE-(mbar): 0.000000E+0

XMCD PARAMETERS:
Xmcd OFF
Xmcd Direction -
Xmcd current (A): 0.000000

Gated scan off

Instrument 1: AMMETER KEITHLEY 6517A B
Measure type: Current
range type: set range value
range value (ampere):  200 pA
Integration time:  set NPLC value
NPLC value: 10.000
Digital filter count: 2
SAMPLE BIAS (V): -30.000
Vsource: ON
Output Voltage value: 30.000
Vsource range: 1000 V

Range Keithley B changed to 20 nA

Range Keithley B changed to 200 pA

Range Keithley B changed to 20 nA

Range Keithley B changed to 200 pA

Range Keithley B changed to 20 nA

Range Keithley B changed to 200 pA

Range Keithley B changed to 20 nA

Range Keithley B changed to 200 nA

Range Keithley B changed to 200 pA

Range Keithley B changed to 20 nA

Range Keithley B changed to 200 pA

Range Keithley B changed to 20 nA

Range Keithley B changed to 200 pA

Range Keithley B changed to 20 nA

Range Keithley B changed to 200 pA

Range Keithley B changed to 20 nA

Range Keithley B changed to 200 pA

Range Keithley B changed to 20 nA

Instrument 2: AMMETER KEITHLEY 6517A A
Measure type: Current
range type: set range value
range value (ampere):  200 nA
Integration time:  set NPLC value
NPLC value: 10.000
Digital filter count: 2
Vsource: OFF
Output Voltage value: -0.000
Vsource range: 100 V
Trigger source: bus

Range Keithley A changed to 20 nA

Range Keithley A changed to 200 nA

Range Keithley A changed to 200 pA

Range Keithley A changed to 20 nA

Range Keithley A changed to 200 pA

Range Keithley A changed to 20 nA

Range Keithley A changed to 200 nA

Range Keithley A changed to 200 pA

Range Keithley A changed to 20 nA

Range Keithley A changed to 200 pA

Range Keithley A changed to 20 nA

Range Keithley A changed to 200 nA

Range Keithley A changed to 200 pA

Range Keithley A changed to 20 nA

Range Keithley A changed to 200 pA

Range Keithley A changed to 20 nA

Range Keithley A changed to 200 pA

Range Keithley A changed to 20 nA

Range Keithley A changed to 200 pA

Range Keithley A changed to 20 nA

Range Keithley A changed to 200 pA

Range Keithley A changed to 20 nA

Range Keithley A changed to 200 nA

Range Keithley A changed to 200 pA

Range Keithley A changed to 20 nA

Range Keithley A changed to 200 pA

Range Keithley A changed to 20 nA

Range Keithley A changed to 200 nA

Range Keithley A changed to 200 pA

Range Keithley A changed to 20 nA

Range Keithley A changed to 200 nA

Range Keithley A changed to 200 pA

Range Keithley A changed to 20 nA

Range Keithley A changed to 200 pA

Range Keithley A changed to 20 nA

Range Keithley A changed to 200 pA

Range Keithley A changed to 20 nA

Range Keithley A changed to 200 nA

Range Keithley A changed to 200 pA

Range Keithley A changed to 20 nA

Range Keithley A changed to 200 pA

Range Keithley A changed to 20 nA

Range Keithley A changed to 200 nA

Instrument 3: AMMETER KEITHLEY 6517A C 
Measure type: Current
range type: set range value
range value (ampere):  20 uA
Integration time:  set NPLC value
NPLC value: 10.000
Digital filter count: 2
Vsource: OFF
Output Voltage value: -0.000
Vsource range: 100 V
Trigger source: bus


Range Keithley C changed to 200 nA


________________________________________________________________________________

RelativeTime (msec)	Photon Energy	Var_1	Var_2	a) I_1 (Amps)	b) I_2 (Amps)	d) I_3 (Amps)	c) I_4 (Amps)	I_BPM_sum (Amps)	Delta Z(mm)	
________________________________________________________________________________

6.93300000E+3	3.99998128E+1	0.00000000E+0	0.00000000E+0	-9.94521498E-7	-8.87173520E-7	-4.99218762E-8	2.34872131E-8	-1.90812968E-6	-1.02039020E-5
1.24690000E+4	4.09998833E+1	0.00000000E+0	0.00000000E+0	-9.73060843E-7	-8.87373196E-7	-4.96625959E-8	2.35974817E-8	-1.88649915E-6	-1.00882308E-5
1.65870000E+4	4.19998748E+1	0.00000000E+0	0.00000000E+0	-9.81196878E-7	-8.87075172E-7	-4.82648669E-8	2.37256317E-8	-1.89281129E-6	-1.01219855E-5
2.07500000E+4	4.30000736E+1	0.00000000E+0	0.00000000E+0	-9.77459666E-7	-8.88452040E-7	-4.89682018E-8	2.36183433E-8	-1.89126156E-6	-1.01136982E-5
2.48300000E+4	4.39999194E+1	0.00000000E+0	0.00000000E+0	-9.86626862E-7	-8.88058649E-7	-4.86642180E-8	2.39044456E-8	-1.89944528E-6	-1.01574614E-5
2.89440000E+4	4.49999541E+1	0.00000000E+0	0.00000000E+0	-9.58469624E-7	-8.87346373E-7	-4.86791192E-8	2.34514503E-8	-1.87104367E-6	-1.00055811E-5
3.29520000E+4	4.59997279E+1	0.00000000E+0	0.00000000E+0	-9.76777193E-7	-8.87695061E-7	-4.95612680E-8	2.35408573E-8	-1.89049266E-6	-1.01095864E-5
3.69230000E+4	4.70001607E+1	0.00000000E+0	0.00000000E+0	-9.83289001E-7	-8.88729201E-7	-4.86254750E-8	2.35199956E-8	-1.89712368E-6	-1.01450464E-5
4.08970000E+4	4.79999656E+1	0.00000000E+0	0.00000000E+0	-9.76887462E-7	-8.88380514E-7	-4.84734831E-8	2.36660270E-8	-1.89007543E-6	-1.01073553E-5
4.47370000E+4	4.89998550E+1	0.00000000E+0	0.00000000E+0	-9.47579854E-7	-8.86836754E-7	-4.69327029E-8	2.36362247E-8	-1.85771309E-6	-9.93429458E-6
4.85930000E+4	5.00000335E+1	0.00000000E+0	0.00000000E+0	-9.66134783E-7	-8.88449060E-7	-4.74482831E-8	2.34007863E-8	-1.87863134E-6	-1.00461569E-5
5.24510000E+4	5.09999851E+1	0.00000000E+0	0.00000000E+0	-9.80836270E-7	-8.88511644E-7	-4.78684959E-8	2.32040910E-8	-1.89401232E-6	-1.01284081E-5
5.62810000E+4	5.19999552E+1	0.00000000E+0	0.00000000E+0	-9.52562803E-7	-8.87546049E-7	-4.65154703E-8	2.31325654E-8	-1.86349176E-6	-9.96519656E-6
6.00260000E+4	5.29997070E+1	0.00000000E+0	0.00000000E+0	-9.79292509E-7	-8.86979805E-7	-4.77254448E-8	2.32875375E-8	-1.89071022E-6	-1.01107498E-5
6.38830000E+4	5.40003007E+1	0.00000000E+0	0.00000000E+0	-9.62293263E-7	-8.88431178E-7	-4.78297529E-8	2.32756166E-8	-1.87527858E-6	-1.00282277E-5
6.76160000E+4	5.49999726E+1	0.00000000E+0	0.00000000E+0	-9.74640366E-7	-8.88154017E-7	-4.76360378E-8	2.36660270E-8	-1.88676439E-6	-1.00896492E-5
7.13070000E+4	5.59998349E+1	0.00000000E+0	0.00000000E+0	-9.78726265E-7	-8.87957321E-7	-4.78893576E-8	2.34365491E-8	-1.89113639E-6	-1.01130288E-5
7.50690000E+4	5.69999843E+1	0.00000000E+0	0.00000000E+0	-9.66891762E-7	-8.86988746E-7	-4.65512331E-8	2.34663514E-8	-1.87696539E-6	-1.00372481E-5
7.88000000E+4	5.79998436E+1	0.00000000E+0	0.00000000E+0	-9.75132105E-7	-8.87605654E-7	-4.82797680E-8	2.36749677E-8	-1.88734256E-6	-1.00927410E-5
8.24030000E+4	5.89996481E+1	0.00000000E+0	0.00000000E+0	-9.74047300E-7	-8.88183819E-7	-4.87327634E-8	2.36421852E-8	-1.88732170E-6	-1.00926294E-5
8.59680000E+4	6.00000302E+1	0.00000000E+0	0.00000000E+0	-9.80144856E-7	-8.87498365E-7	-4.81158552E-8	2.31981305E-8	-1.89256095E-6	-1.01206468E-5
8.95500000E+4	6.10002929E+1	0.00000000E+0	0.00000000E+0	-9.78005049E-7	-8.88016926E-7	-4.79251203E-8	2.34484700E-8	-1.89049863E-6	-1.01096183E-5
9.31330000E+4	6.19999118E+1	0.00000000E+0	0.00000000E+0	-9.77316615E-7	-8.86601315E-7	-4.78833971E-8	2.35527782E-8	-1.88824855E-6	-1.00975858E-5
9.66990000E+4	6.29997380E+1	0.00000000E+0	0.00000000E+0	-9.76055977E-7	-8.88112293E-7	-4.97460425E-8	2.34037666E-8	-1.89051055E-6	-1.01096821E-5
1.00268000E+5	6.39998766E+1	0.00000000E+0	0.00000000E+0	-9.63845964E-7	-8.87292729E-7	-4.81396971E-8	2.34276084E-8	-1.87585078E-6	-1.00312876E-5
1.03725000E+5	6.49997967E+1	0.00000000E+0	0.00000000E+0	-9.49117654E-7	-8.87563930E-7	-4.82112227E-8	2.34514503E-8	-1.86144136E-6	-9.95423186E-6
1.07225000E+5	6.60002841E+1	0.00000000E+0	0.00000000E+0	-9.48226565E-7	-8.88010965E-7	-4.97251808E-8	2.31742887E-8	-1.86278842E-6	-9.96143541E-6
1.10707000E+5	6.69998384E+1	0.00000000E+0	0.00000000E+0	-9.72929713E-7	-8.88210641E-7	-4.83691750E-8	2.31832293E-8	-1.88632630E-6	-1.00873064E-5
1.14151000E+5	6.80000519E+1	0.00000000E+0	0.00000000E+0	-9.69770666E-7	-8.88079511E-7	-4.87655459E-8	2.35259561E-8	-1.88308977E-6	-1.00699988E-5
1.17593000E+5	6.89999835E+1	0.00000000E+0	0.00000000E+0	-9.72253200E-7	-8.87718903E-7	-4.88519727E-8	2.33888654E-8	-1.88543521E-6	-1.00825412E-5
1.21059000E+5	6.99996402E+1	0.00000000E+0	0.00000000E+0	-9.67344757E-7	-8.86663900E-7	-5.01155913E-8	2.33501224E-8	-1.88077413E-6	-1.00576156E-5
1.24512000E+5	7.10001332E+1	0.00000000E+0	0.00000000E+0	-9.86138104E-7	-8.87122856E-7	-4.85301076E-8	2.35557584E-8	-1.89823531E-6	-1.01509910E-5
1.27942000E+5	7.19999196E+1	0.00000000E+0	0.00000000E+0	-9.76199028E-7	-8.87629496E-7	-4.93019878E-8	2.33501224E-8	-1.88978039E-6	-1.01057775E-5
1.39586000E+5	7.00008787E+1	0.00000000E+0	0.00000000E+0	-9.53370446E-7	-8.87811290E-7	-4.77075634E-8	2.33143596E-8	-1.86557494E-6	-9.97633658E-6
1.43792000E+5	7.09991398E+1	0.00000000E+0	0.00000000E+0	-9.68605395E-7	-8.88329850E-7	-4.80592308E-8	2.31891898E-8	-1.88180529E-6	-1.00631299E-5
1.47274000E+5	7.20001239E+1	0.00000000E+0	0.00000000E+0	-9.81021044E-7	-8.89191137E-7	-4.83006297E-8	2.29656724E-8	-1.89554714E-6	-1.01366157E-5
1.50699000E+5	7.29999014E+1	0.00000000E+0	0.00000000E+0	-9.64009877E-7	-8.87584792E-7	-4.80860529E-8	2.34514503E-8	-1.87622927E-6	-1.00333116E-5
1.54062000E+5	7.39997520E+1	0.00000000E+0	0.00000000E+0	-9.78985546E-7	-8.87847053E-7	-4.86224948E-8	2.30908421E-8	-1.89236425E-6	-1.01195949E-5
1.57383000E+5	7.49999081E+1	0.00000000E+0	0.00000000E+0	-9.68989845E-7	-8.89048086E-7	-4.82201634E-8	2.29209689E-8	-1.88333713E-6	-1.00713215E-5
1.60694000E+5	7.60002395E+1	0.00000000E+0	0.00000000E+0	-9.56276173E-7	-8.88624893E-7	-4.78297529E-8	2.31415061E-8	-1.86958931E-6	-9.99780381E-6
1.64030000E+5	7.69999167E+1	0.00000000E+0	0.00000000E+0	-9.65103622E-7	-8.88666617E-7	-4.87595855E-8	2.32100514E-8	-1.87931977E-6	-1.00498384E-5
1.67336000E+5	7.79998590E+1	0.00000000E+0	0.00000000E+0	-9.94232415E-7	-8.87104975E-7	-4.85897122E-8	2.34067468E-8	-1.90652036E-6	-1.01952960E-5
1.70644000E+5	7.90000508E+1	0.00000000E+0	0.00000000E+0	-9.83038662E-7	-8.88204680E-7	-4.75198087E-8	2.32785968E-8	-1.89548455E-6	-1.01362810E-5
1.73962000E+5	7.99999504E+1	0.00000000E+0	0.00000000E+0	-9.77140782E-7	-8.88425218E-7	-4.81814203E-8	2.33799247E-8	-1.89036749E-6	-1.01089171E-5
1.77314000E+5	8.09998974E+1	0.00000000E+0	0.00000000E+0	-9.71469399E-7	-8.88246404E-7	-4.90784704E-8	2.30908421E-8	-1.88570343E-6	-1.00839756E-5
1.80686000E+5	8.19999755E+1	0.00000000E+0	0.00000000E+0	-9.95490074E-7	-8.87614594E-7	-4.85420285E-8	2.28881863E-8	-1.90875851E-6	-1.02072648E-5
1.83987000E+5	8.29996825E+1	0.00000000E+0	0.00000000E+0	-9.80022666E-7	-8.88267265E-7	-4.76121959E-8	2.30908421E-8	-1.89281129E-6	-1.01219855E-5
1.87167000E+5	8.39994127E+1	0.00000000E+0	0.00000000E+0	-9.62627049E-7	-8.88115273E-7	-4.80979738E-8	2.32607154E-8	-1.87557958E-6	-1.00298373E-5
1.90390000E+5	8.50004678E+1	0.00000000E+0	0.00000000E+0	-9.78472946E-7	-8.87626515E-7	-4.86582576E-8	2.31534270E-8	-1.89160429E-6	-1.01155310E-5
1.93626000E+5	8.60000127E+1	0.00000000E+0	0.00000000E+0	-9.64740034E-7	-8.87483464E-7	-4.84496413E-8	2.31713084E-8	-1.87750183E-6	-1.00401167E-5
1.96804000E+5	8.69996239E+1	0.00000000E+0	0.00000000E+0	-9.66137763E-7	-8.88231503E-7	-4.90635692E-8	2.33382014E-8	-1.88009463E-6	-1.00539820E-5
2.00714000E+5	8.80001557E+1	0.00000000E+0	0.00000000E+0	-9.69323631E-7	-8.87936460E-7	-4.82618866E-8	2.30968026E-8	-1.88242518E-6	-1.00664448E-5
2.03925000E+5	8.90003927E+1	0.00000000E+0	0.00000000E+0	-9.89377617E-7	-8.86967884E-7	-4.83393727E-8	2.30789212E-8	-1.90160595E-6	-1.01690158E-5
2.07112000E+5	8.99996809E+1	0.00000000E+0	0.00000000E+0	-9.62644930E-7	-8.86690722E-7	-4.83959971E-8	2.36123828E-8	-1.87411927E-6	-1.00220282E-5
2.10294000E+5	9.09997744E+1	0.00000000E+0	0.00000000E+0	-9.93546962E-7	-8.87239085E-7	-4.80145273E-8	2.31564073E-8	-1.90564417E-6	-1.01906105E-5
2.13371000E+5	9.20000441E+1	0.00000000E+0	0.00000000E+0	-9.54669828E-7	-8.88136135E-7	-4.77194843E-8	2.35766201E-8	-1.86694883E-6	-9.98368357E-6
2.16573000E+5	9.29999900E+1	0.00000000E+0	0.00000000E+0	-9.75045678E-7	-8.88878213E-7	-4.94659006E-8	2.32309131E-8	-1.89015888E-6	-1.01078015E-5
2.19758000E+5	9.39999865E+1	0.00000000E+0	0.00000000E+0	-9.56398363E-7	-8.87093054E-7	-4.89652215E-8	2.37286119E-8	-1.86872803E-6	-9.99319800E-6
2.22949000E+5	9.50001981E+1	0.00000000E+0	0.00000000E+0	-9.49326271E-7	-8.87534128E-7	-4.80949936E-8	2.32398538E-8	-1.86171554E-6	-9.95569807E-6
2.26020000E+5	9.59988555E+1	0.00000000E+0	0.00000000E+0	-9.66754671E-7	-8.87531148E-7	-4.84377204E-8	2.32875375E-8	-1.87943600E-6	-1.00504599E-5
2.29130000E+5	9.70011147E+1	0.00000000E+0	0.00000000E+0	-9.82704876E-7	-8.87516247E-7	-4.84615622E-8	2.30222968E-8	-1.89566039E-6	-1.01372213E-5
2.32244000E+5	9.79997244E+1	0.00000000E+0	0.00000000E+0	-9.95740413E-7	-8.88013946E-7	-4.87655459E-8	2.31742887E-8	-1.90934562E-6	-1.02104044E-5
2.35311000E+5	9.89994059E+1	0.00000000E+0	0.00000000E+0	-9.78827593E-7	-8.87295710E-7	-4.75198087E-8	2.30699805E-8	-1.89057313E-6	-1.01100167E-5
2.38373000E+5	9.99999835E+1	0.00000000E+0	0.00000000E+0	-9.61768742E-7	-8.86488066E-7	-4.91023122E-8	2.32607154E-8	-1.87409841E-6	-1.00219166E-5
2.41434000E+5	1.01000083E+2	0.00000000E+0	0.00000000E+0	-9.50545186E-7	-8.87298690E-7	-4.85330878E-8	2.30670003E-8	-1.86330996E-6	-9.96422440E-6
2.44480000E+5	1.02000106E+2	0.00000000E+0	0.00000000E+0	-9.66224190E-7	-8.87021528E-7	-4.87268029E-8	2.32368735E-8	-1.87873565E-6	-1.00467147E-5
2.54355000E+5	9.80006707E+1	0.00000000E+0	0.00000000E+0	-9.62451215E-7	-8.88127194E-7	-4.91827785E-8	2.32428340E-8	-1.87651835E-6	-1.00348575E-5
2.58171000E+5	9.89988265E+1	0.00000000E+0	0.00000000E+0	-9.78636858E-7	-8.88189779E-7	-4.89831029E-8	2.32338933E-8	-1.89257585E-6	-1.01207265E-5
2.61221000E+5	9.99998045E+1	0.00000000E+0	0.00000000E+0	-9.66802355E-7	-8.87426840E-7	-4.90963518E-8	2.32905177E-8	-1.88003503E-6	-1.00536633E-5
2.64284000E+5	1.00999681E+2	0.00000000E+0	0.00000000E+0	-9.71648213E-7	-8.88097392E-7	-4.96476948E-8	2.30252770E-8	-1.88636802E-6	-1.00875295E-5
2.67402000E+5	1.02000088E+2	0.00000000E+0	0.00000000E+0	-9.61145873E-7	-8.88002025E-7	-4.97758448E-8	2.30491189E-8	-1.87587462E-6	-1.00314151E-5
2.70469000E+5	1.02999811E+2	0.00000000E+0	0.00000000E+0	-9.60987921E-7	-8.89292465E-7	-4.76032552E-8	2.30848817E-8	-1.87479876E-6	-1.00256618E-5
2.73530000E+5	1.03999500E+2	0.00000000E+0	0.00000000E+0	-9.52750558E-7	-8.88222562E-7	-4.94778215E-8	2.32040910E-8	-1.86724685E-6	-9.98527727E-6
2.76559000E+5	1.04999881E+2	0.00000000E+0	0.00000000E+0	-9.64468833E-7	-8.87894736E-7	-4.80860529E-8	2.28643445E-8	-1.87758528E-6	-1.00405630E-5
2.79619000E+5	1.06000206E+2	0.00000000E+0	0.00000000E+0	-9.59810729E-7	-8.87522207E-7	-4.75347099E-8	2.26587084E-8	-1.87220894E-6	-1.00118125E-5
2.82688000E+5	1.06999917E+2	0.00000000E+0	0.00000000E+0	-9.70074650E-7	-8.88377534E-7	-4.78774366E-8	2.30193166E-8	-1.88331030E-6	-1.00711781E-5
2.85745000E+5	1.07999814E+2	0.00000000E+0	0.00000000E+0	-9.56693406E-7	-8.88747083E-7	-4.84407006E-8	2.29924945E-8	-1.87088869E-6	-1.00047524E-5
2.88699000E+5	1.08999375E+2	0.00000000E+0	0.00000000E+0	-9.70330950E-7	-8.88183819E-7	-4.87983285E-8	2.32219724E-8	-1.88409113E-6	-1.00753536E-5
2.91777000E+5	1.10000440E+2	0.00000000E+0	0.00000000E+0	-9.81176016E-7	-8.88872253E-7	-4.66883238E-8	2.29805735E-8	-1.89375602E-6	-1.01270375E-5
2.94773000E+5	1.10999180E+2	0.00000000E+0	0.00000000E+0	-9.66543074E-7	-8.88264285E-7	-4.91172134E-8	2.30252770E-8	-1.88089930E-6	-1.00582850E-5
2.97712000E+5	1.11999412E+2	0.00000000E+0	0.00000000E+0	-9.67869278E-7	-8.88517605E-7	-4.90158855E-8	2.30461386E-8	-1.88235663E-6	-1.00660782E-5
3.00658000E+5	1.12999966E+2	0.00000000E+0	0.00000000E+0	-9.65795036E-7	-8.88812648E-7	-4.94271576E-8	2.28554038E-8	-1.88117944E-6	-1.00597831E-5
3.03587000E+5	1.14000390E+2	0.00000000E+0	0.00000000E+0	-9.82371090E-7	-8.88177858E-7	-4.87864076E-8	2.34514503E-8	-1.89588391E-6	-1.01384166E-5
3.06511000E+5	1.14999363E+2	0.00000000E+0	0.00000000E+0	-9.77212307E-7	-8.88279186E-7	-4.84108983E-8	2.31623677E-8	-1.89074002E-6	-1.01109092E-5
