G:\BEAR_storage\User_Experiments\20220317_arneodo\Bpm\file(1)_bpm_0043.txt
Ring Energy (GeV): 2
Lifetime (hours): 16.1697
Scan beginning: 3/18/2022	9:22:07 PM
Ring current (mA): 282.73
Source position: x (mm): -0.003 x' (mrad): 0.005 y (mm): 0.004 y' (mrad): -0.002
Scan end: 3/18/2022	9:28:46 PM
Ring current (mA): 280.96
Source position: x (mm): -0.003 x' (mrad): 0.005 y (mm): 0.003 y' (mrad): -0.003

SCAN TYPE: PHOTON ENERGY VS VAR_1 VS VAR_2

FILE INFO: FILE INFO:

SCAN PARAMETERS
waiting time (ms): 0
Number of scans: 1
Current scan number: 1
DARK OFF 
PREDARK OFF 

SCAN PARAMETERS
Regions configuration: 
number of regions: 7
Mirror grating scan: on
Timed acquisition: off
Region 1:
Initial energy (eV): 40.000000
Final energy (eV): 72.000000
Delta energy (eV): 1.000000
Deviation angle choice: Higher order rejection
Deviation angle (°): NaN
Al filter
G1200 channel
range keithley B 20 nA
range keithley C 2 uA
range keithley A 2 uA
Var_1: PsiC 0.000000
Var_2: PhiM0.000000
Bias CEM (V): 0.000000
Bias Keithley B (V): -30.000000
Name region: 
Region 2:
Initial energy (eV): 70.000000
Final energy (eV): 102.000000
Delta energy (eV): 1.000000
Deviation angle choice: Higher order rejection
Deviation angle (°): NaN
Si filter
G1200 channel
range keithley B 20 nA
range keithley C 2 uA
range keithley A 20 nA
Var_1: PsiC 0.000000
Var_2: PhiM0.000000
Bias CEM (V): 0.000000
Bias Keithley B (V): -30.000000
Name region: 
Region 3:
Initial energy (eV): 98.000000
Final energy (eV): 260.000000
Delta energy (eV): 1.000000
Deviation angle choice: Higher order rejection
Deviation angle (°): NaN
Full Beam
G1200 channel
range keithley B 20 nA
range keithley C 2 uA
range keithley A 200 nA
Var_1: PsiC 0.000000
Var_2: PhiM0.000000
Bias CEM (V): 0.000000
Bias Keithley B (V): -30.000000
Name region: 
Region 4:
Initial energy (eV): 255.000000
Final energy (eV): 320.000000
Delta energy (eV): 1.000000
Deviation angle choice: Higher order rejection
Deviation angle (°): NaN
filter Ag 0.6 um
G1200 channel
range keithley B 200 pA
range keithley C 2 uA
range keithley A 200 pA
Var_1: PsiC 0.000000
Var_2: PhiM0.000000
Bias CEM (V): 0.000000
Bias Keithley B (V): -30.000000
Name region: 
Region 5:
Initial energy (eV): 255.000000
Final energy (eV): 320.000000
Delta energy (eV): 1.000000
Deviation angle choice: Higher order rejection
Deviation angle (°): NaN
Full Beam
G1200 channel
range keithley B 200 pA
range keithley C 2 uA
range keithley A 200 pA
Var_1: PsiC 0.000000
Var_2: PhiM0.000000
Bias CEM (V): 0.000000
Bias Keithley B (V): -30.000000
Name region: 
Region 6:
Initial energy (eV): 315.000000
Final energy (eV): 1200.000000
Delta energy (eV): 5.000000
Deviation angle choice: Higher order rejection
Deviation angle (°): NaN
Full Beam
G1200 channel
range keithley B 20 nA
range keithley C 2 uA
range keithley A 20 nA
Var_1: PsiC 0.000000
Var_2: PhiM0.000000
Bias CEM (V): 0.000000
Bias Keithley B (V): -30.000000
Name region: 
Region 7:
Initial energy (eV): 1190.000000
Final energy (eV): 1500.000000
Delta energy (eV): 5.000000
Deviation angle choice: Higher order rejection
Deviation angle (°): NaN
filter Ag 0.6 um
G1200 channel
range keithley B 200 pA
range keithley C 2 uA
range keithley A 200 pA
Var_1: PsiC 0.000000
Var_2: PhiM0.000000
Bias CEM (V): 0.000000
Bias Keithley B (V): -30.000000
Name region: 

BEAR MONOCHROMATOR CONFIGURATION: 
Current Grating Position:     -56848.20
Current Mirror Position: 80276.2
Current Grating: G1200
P2 phiz position:  0.0000
Mono axis position: 25.0000
Current Photon Energy (eV): 233.294
Current Deviation Angle: 160.678
Vertical Exit Slits (um): 450.000
Exit slit y axis position: 2.2375
Horizontal Exit Slits (um):  889.156
Exit slit z axis position: 1.9229
Mitutoyo position (mm): 

Dose on sample (mJ/cm^2): NaN

ENERGY CALIBRATION:
offset grating G1200: yes
Delta 0 order G1200:  -800.0
offset grating G1800: not
Delta 0 order G1800:  0.0
offset grating GNIM: not
Delta 0 order GNIM:  0.0
ZERO ORDER POSITIONS:
Grating G1200: Mirror position:  4938.0
Grating position: -105355.0
Grating G1800: 
Mirror position:  4938.0
Grating position: -106345.0
Grating GNIM: 
Mirror position:  10000.0
Grating position: 227300.0

Initial filter: Full Beam

EXPERIMENTAL CHAMBER CONFIGURATION: 
PsiC (deg):   -0.000186
Phi Analyzer (degrees): 89.992308
Theta Manipulator (degrees): -44.000040
Theta Analyzer (degrees): -135.001468
PhiM (degrees): -0.004103
XM (mm): 0.000713
YM (mm): 19.932987
ZM (mm): (Warning: for kinetic energy scans, 
this parameter is given in the scan settings) 
-6.601438
TiltM (°): 0.000138

ELECTRON ANALYZER CONFIGURATION: 
Current Kinetik energy (eV): 35.0
Mode: DE = COST
Pass Energy (eV):  50.000
CEM: ON
Bias Front-Back CEM (V): 3499.561
Bias Back-Collector CEM (V): 100.874
Bias Retard-Front CEM: 100.087COIL VALUES
Ix (amps):2.820
Iy (amps): 6.789
Iz (amps): 37.337

POLARIZATION SELECTOR CONFIGURATION:
Psi1 (rad): -0.001665535
Psi2 (rad): 0.001417093
Z min position (mm): 46.599650
DZ position (mm): 18.599100
Zmin 0 (mm): 66.500000
DZ0 (mm): 53.000000

BEAM SELECTOR CONFIGURATION:
Zmin position (mm): NaN
DZ position (mm): NaN
Y+ position (mm): NaN
Y- position (mm): NaN

CHANNEL ELECTRON MULTIPLIER CONFIGURATION:
CEM configured: OFF
Bias CEM: 0.000000

FLUORESCENCE DETECTOR CONFIGURATION:
Not configured

LUMINESCENCE MONOCHROMATOR CONFIGURATION:
Optical fiber position (mm): 0.000000
Optical fiber Switch inside: OFF
Optical fiber Switch outside: ON
Monochromator wavelength (A): 0.000000
Limit Switches: ON

I0 MONITOR PARAMETERS:
I0 detector position(mm): -0.000000E+0
Lower switch: OFF
Upper switch: OFF
Valve status:open

PRESSURE PARAMETERS:
Monitor chamber pressure (mbar): 9.098e-10
Experimental chamber pressure -ION GAUGE-(mbar): 0.000000E+0

XMCD PARAMETERS:
Xmcd OFF
Xmcd Direction -
Xmcd current (A): 0.000000

Gated scan off

Instrument 1: AMMETER KEITHLEY 6517A B
Measure type: Current
range type: set range value
range value (ampere):  200 pA
Integration time:  set NPLC value
NPLC value: 10.000
Digital filter count: 2
SAMPLE BIAS (V): -30.000
Vsource: ON
Output Voltage value: 30.000
Vsource range: 1000 V

Range Keithley B changed to 20 nA

Range Keithley B changed to 200 pA

Range Keithley B changed to 20 nA

Range Keithley B changed to 200 pA

Range Keithley B changed to 20 nA

Range Keithley B changed to 200 pA

Range Keithley B changed to 20 nA

Range Keithley B changed to 200 nA

Range Keithley B changed to 200 pA

Range Keithley B changed to 20 nA

Range Keithley B changed to 200 pA

Range Keithley B changed to 20 nA

Range Keithley B changed to 200 pA

Range Keithley B changed to 20 nA

Range Keithley B changed to 200 pA

Range Keithley B changed to 20 nA

Range Keithley B changed to 200 pA

Range Keithley B changed to 20 nA

Range Keithley B changed to 200 pA

Range Keithley B changed to 20 nA

Instrument 2: AMMETER KEITHLEY 6517A A
Measure type: Current
range type: set range value
range value (ampere):  200 nA
Integration time:  set NPLC value
NPLC value: 10.000
Digital filter count: 2
Vsource: OFF
Output Voltage value: -0.000
Vsource range: 100 V
Trigger source: bus

Range Keithley A changed to 20 nA

Range Keithley A changed to 200 nA

Range Keithley A changed to 200 pA

Range Keithley A changed to 20 nA

Range Keithley A changed to 200 pA

Range Keithley A changed to 20 nA

Range Keithley A changed to 200 nA

Range Keithley A changed to 200 pA

Range Keithley A changed to 20 nA

Range Keithley A changed to 200 pA

Range Keithley A changed to 20 nA

Range Keithley A changed to 200 nA

Range Keithley A changed to 200 pA

Range Keithley A changed to 20 nA

Range Keithley A changed to 200 pA

Range Keithley A changed to 20 nA

Range Keithley A changed to 200 pA

Range Keithley A changed to 20 nA

Range Keithley A changed to 200 pA

Range Keithley A changed to 20 nA

Range Keithley A changed to 200 pA

Range Keithley A changed to 20 nA

Range Keithley A changed to 200 nA

Range Keithley A changed to 200 pA

Range Keithley A changed to 20 nA

Range Keithley A changed to 200 pA

Range Keithley A changed to 20 nA

Range Keithley A changed to 200 nA

Range Keithley A changed to 200 pA

Range Keithley A changed to 20 nA

Range Keithley A changed to 200 nA

Range Keithley A changed to 200 pA

Range Keithley A changed to 20 nA

Range Keithley A changed to 200 pA

Range Keithley A changed to 20 nA

Range Keithley A changed to 200 pA

Range Keithley A changed to 20 nA

Range Keithley A changed to 200 nA

Range Keithley A changed to 200 pA

Range Keithley A changed to 20 nA

Range Keithley A changed to 200 pA

Range Keithley A changed to 20 nA

Range Keithley A changed to 200 nA

Range Keithley A changed to 20 nA

Range Keithley A changed to 200 nA

Range Keithley A changed to 200 pA

Range Keithley A changed to 20 nA

Range Keithley A changed to 200 nA

Range Keithley A changed to 2 uA

Range Keithley A changed to 20 nA

Range Keithley A changed to 200 nA

Instrument 3: AMMETER KEITHLEY 6517A C 
Measure type: Current
range type: set range value
range value (ampere):  2 uA
Integration time:  set NPLC value
NPLC value: 10.000
Digital filter count: 2
Vsource: OFF
Output Voltage value: -0.000
Vsource range: 100 V
Trigger source: bus


________________________________________________________________________________

RelativeTime (msec)	Photon Energy	Var_1	Var_2	a) I_1 (Amps)	b) I_2 (Amps)	d) I_3 (Amps)	c) I_4 (Amps)	I_BPM_sum (Amps)	Delta Z(mm)	
________________________________________________________________________________

5.02500000E+3	3.99997931E+1	0.00000000E+0	0.00000000E+0	1.23579517E-5	8.87714432E-6	3.35809390E-5	2.73130330E-5	8.21290680E-5	4.39192877E-4
1.08070000E+4	4.09999706E+1	0.00000000E+0	0.00000000E+0	1.23558029E-5	8.86688934E-6	3.35614989E-5	2.73135039E-5	8.20976951E-5	4.39025108E-4
1.52140000E+4	4.19997829E+1	0.00000000E+0	0.00000000E+0	1.23472586E-5	8.90999543E-6	3.37236862E-5	2.74009678E-5	8.23819080E-5	4.40544962E-4
1.94850000E+4	4.30000975E+1	0.00000000E+0	0.00000000E+0	1.23885020E-5	8.84845958E-6	3.37338994E-5	2.73490879E-5	8.23199489E-5	4.40213631E-4
2.38190000E+4	4.39999194E+1	0.00000000E+0	0.00000000E+0	1.23231217E-5	8.86134611E-6	3.35394661E-5	2.74374875E-5	8.21614214E-5	4.39365890E-4
2.79420000E+4	4.49998743E+1	0.00000000E+0	0.00000000E+0	1.23468563E-5	8.86691020E-6	3.34229718E-5	2.71976682E-5	8.18344065E-5	4.37617147E-4
3.20290000E+4	4.60000067E+1	0.00000000E+0	0.00000000E+0	1.24153092E-5	8.81858275E-6	3.34482680E-5	2.76257727E-5	8.23079327E-5	4.40149372E-4
3.63150000E+4	4.70000301E+1	0.00000000E+0	0.00000000E+0	1.23216823E-5	8.86800097E-6	3.34732960E-5	2.74157885E-5	8.20787677E-5	4.38923891E-4
4.04220000E+4	4.79999202E+1	0.00000000E+0	0.00000000E+0	1.23146608E-5	8.90483366E-6	3.37539445E-5	2.73822698E-5	8.23557088E-5	4.40404860E-4
4.45660000E+4	4.89998550E+1	0.00000000E+0	0.00000000E+0	1.23526946E-5	8.89395879E-6	3.35676710E-5	2.74875584E-5	8.23018828E-5	4.40117020E-4
4.85230000E+4	5.00001320E+1	0.00000000E+0	0.00000000E+0	1.23909101E-5	8.96135675E-6	3.37523024E-5	2.74317744E-5	8.25363436E-5	4.41370822E-4
5.25090000E+4	5.09999338E+1	0.00000000E+0	0.00000000E+0	1.24767646E-5	8.92434525E-6	3.35613559E-5	2.73761424E-5	8.23386082E-5	4.40313413E-4
5.64680000E+4	5.20000085E+1	0.00000000E+0	0.00000000E+0	1.23066142E-5	8.83968876E-6	3.34476481E-5	2.73718956E-5	8.19658467E-5	4.38320036E-4
6.03010000E+4	5.29997479E+1	0.00000000E+0	0.00000000E+0	1.23974308E-5	8.88079511E-6	3.33329300E-5	2.71780076E-5	8.17891636E-5	4.37375206E-4
6.43070000E+4	5.40001712E+1	0.00000000E+0	0.00000000E+0	1.23832509E-5	8.91389357E-6	3.35800092E-5	2.72453400E-5	8.21224936E-5	4.39157720E-4
6.80870000E+4	5.49998085E+1	0.00000000E+0	0.00000000E+0	1.23267278E-5	8.85435746E-6	3.32898239E-5	2.73977402E-5	8.18686493E-5	4.37800264E-4
7.19090000E+4	5.60001908E+1	0.00000000E+0	0.00000000E+0	1.24810413E-5	8.86193321E-6	3.35603873E-5	2.73157361E-5	8.22190979E-5	4.39674320E-4
7.57580000E+4	5.69998563E+1	0.00000000E+0	0.00000000E+0	1.22197494E-5	8.93356311E-6	3.35603963E-5	2.72974583E-5	8.20111671E-5	4.38562391E-4
7.96040000E+4	5.80001599E+1	0.00000000E+0	0.00000000E+0	1.22768238E-5	8.83478032E-6	3.35790138E-5	2.73062232E-5	8.19968411E-5	4.38485781E-4
8.32450000E+4	5.89995109E+1	0.00000000E+0	0.00000000E+0	1.23232022E-5	8.85018514E-6	3.34221969E-5	2.72877934E-5	8.18833777E-5	4.37879025E-4
8.69260000E+4	6.00001011E+1	0.00000000E+0	0.00000000E+0	1.23026803E-5	8.89226006E-6	3.32571993E-5	2.73241851E-5	8.17763247E-5	4.37306549E-4
9.08630000E+4	6.10002929E+1	0.00000000E+0	0.00000000E+0	1.24222115E-5	8.82794962E-6	3.34428440E-5	2.72079470E-5	8.19009521E-5	4.37973006E-4
9.46940000E+4	6.20000475E+1	0.00000000E+0	0.00000000E+0	1.22569397E-5	8.81057785E-6	3.36960326E-5	2.72539052E-5	8.20174553E-5	4.38596018E-4
9.84160000E+4	6.29997380E+1	0.00000000E+0	0.00000000E+0	1.24311104E-5	8.83925364E-6	3.36125384E-5	2.74260881E-5	8.23089906E-5	4.40155030E-4
1.02252000E+5	6.40000219E+1	0.00000000E+0	0.00000000E+0	1.23347565E-5	8.84610520E-6	3.36213092E-5	2.70968082E-5	8.18989792E-5	4.37962455E-4
1.05962000E+5	6.50001297E+1	0.00000000E+0	0.00000000E+0	1.24051079E-5	8.85587142E-6	3.34904472E-5	2.73090753E-5	8.20605018E-5	4.38826213E-4
1.09733000E+5	6.60000266E+1	0.00000000E+0	0.00000000E+0	1.24141052E-5	8.90023516E-6	3.35986624E-5	2.72667619E-5	8.21797648E-5	4.39463983E-4
1.13473000E+5	6.70000153E+1	0.00000000E+0	0.00000000E+0	1.23446151E-5	8.86851953E-6	3.34602366E-5	2.73016187E-5	8.19749900E-5	4.38368931E-4
1.17142000E+5	6.80000354E+1	0.00000000E+0	0.00000000E+0	1.22604862E-5	8.82825659E-6	3.35144888E-5	2.72773328E-5	8.18805643E-5	4.37863980E-4
1.20701000E+5	6.89998897E+1	0.00000000E+0	0.00000000E+0	1.23548373E-5	8.85584758E-6	3.35775535E-5	2.72975835E-5	8.20858219E-5	4.38961614E-4
1.24256000E+5	6.99999131E+1	0.00000000E+0	0.00000000E+0	1.22902319E-5	8.87459324E-6	3.33823542E-5	2.73053053E-5	8.18524846E-5	4.37713821E-4
1.27811000E+5	7.10003150E+1	0.00000000E+0	0.00000000E+0	1.22971609E-5	8.82908807E-6	3.34746639E-5	2.71898153E-5	8.17907282E-5	4.37383573E-4
1.31320000E+5	7.19998344E+1	0.00000000E+0	0.00000000E+0	1.24361619E-5	8.89506148E-6	3.36635332E-5	2.73653510E-5	8.23601076E-5	4.40428383E-4
1.43018000E+5	7.00008787E+1	0.00000000E+0	0.00000000E+0	1.23397484E-5	8.88087259E-6	3.35513006E-5	2.73770603E-5	8.21489819E-5	4.39299369E-4
1.47343000E+5	7.09992392E+1	0.00000000E+0	0.00000000E+0	1.23201862E-5	8.86865066E-6	3.33891044E-5	2.72587064E-5	8.18366476E-5	4.37629132E-4
1.50929000E+5	7.20002091E+1	0.00000000E+0	0.00000000E+0	1.23514220E-5	8.88416277E-6	3.35541110E-5	2.73232195E-5	8.21129152E-5	4.39106498E-4
1.54434000E+5	7.29997964E+1	0.00000000E+0	0.00000000E+0	1.22323736E-5	8.86622177E-6	3.32995842E-5	2.72869143E-5	8.16850938E-5	4.36818684E-4
1.57889000E+5	7.39996612E+1	0.00000000E+0	0.00000000E+0	1.23766050E-5	8.86197792E-6	3.34980766E-5	2.74295124E-5	8.21661719E-5	4.39391294E-4
1.61263000E+5	7.50001297E+1	0.00000000E+0	0.00000000E+0	1.22816935E-5	8.89234351E-6	3.33578448E-5	2.73086282E-5	8.18405100E-5	4.37649786E-4
1.64655000E+5	7.60000119E+1	0.00000000E+0	0.00000000E+0	1.21933356E-5	8.89429854E-6	3.36706202E-5	2.73011479E-5	8.20594021E-5	4.38820332E-4
1.68016000E+5	7.69999167E+1	0.00000000E+0	0.00000000E+0	1.21821984E-5	8.86314319E-6	3.35979651E-5	2.74729434E-5	8.21162501E-5	4.39124332E-4
1.71355000E+5	7.80003385E+1	0.00000000E+0	0.00000000E+0	1.23788938E-5	8.81875262E-6	3.35674803E-5	2.71715495E-5	8.19366761E-5	4.38164044E-4
1.74765000E+5	7.89997699E+1	0.00000000E+0	0.00000000E+0	1.23256758E-5	8.86669861E-6	3.34845762E-5	2.75319698E-5	8.22089204E-5	4.39619895E-4
1.78169000E+5	8.00003112E+1	0.00000000E+0	0.00000000E+0	1.21785327E-5	8.88224648E-6	3.33808969E-5	2.73441645E-5	8.17858406E-5	4.37357436E-4
1.81615000E+5	8.09996564E+1	0.00000000E+0	0.00000000E+0	1.23662069E-5	8.87909935E-6	3.35797916E-5	2.74126235E-5	8.22377214E-5	4.39773911E-4
1.85020000E+5	8.19999755E+1	0.00000000E+0	0.00000000E+0	1.24182776E-5	8.91830133E-6	3.36596142E-5	2.72377404E-5	8.22339335E-5	4.39753655E-4
1.88301000E+5	8.29993932E+1	0.00000000E+0	0.00000000E+0	1.23912617E-5	8.81013975E-6	3.37809037E-5	2.73953172E-5	8.23776224E-5	4.40522045E-4
1.91560000E+5	8.40001079E+1	0.00000000E+0	0.00000000E+0	1.24527618E-5	8.85458992E-6	3.36078326E-5	2.72388670E-5	8.21540513E-5	4.39326478E-4
1.94833000E+5	8.50000407E+1	0.00000000E+0	0.00000000E+0	1.22426077E-5	8.87732016E-6	3.36238395E-5	2.72248479E-5	8.19686153E-5	4.38334841E-4
1.98070000E+5	8.59995754E+1	0.00000000E+0	0.00000000E+0	1.24232218E-5	8.86457370E-6	3.36155306E-5	2.74472955E-5	8.23506215E-5	4.40377655E-4
2.01350000E+5	8.70003697E+1	0.00000000E+0	0.00000000E+0	1.23561606E-5	8.85652111E-6	3.35343580E-5	2.73536059E-5	8.21006456E-5	4.39040885E-4
2.05359000E+5	8.80000031E+1	0.00000000E+0	0.00000000E+0	1.24976084E-5	8.86820064E-6	3.35664640E-5	2.73787591E-5	8.23110321E-5	4.40165947E-4
2.08680000E+5	8.90002366E+1	0.00000000E+0	0.00000000E+0	1.22084096E-5	8.86945532E-6	3.35104505E-5	2.71725240E-5	8.17608394E-5	4.37223740E-4
2.11983000E+5	8.99996809E+1	0.00000000E+0	0.00000000E+0	1.24811724E-5	8.82820890E-6	3.34070037E-5	2.73926857E-5	8.21090707E-5	4.39085939E-4
2.15302000E+5	9.09996292E+1	0.00000000E+0	0.00000000E+0	1.24562249E-5	8.85822879E-6	3.36254518E-5	2.72854271E-5	8.22253325E-5	4.39707661E-4
2.18588000E+5	9.20005264E+1	0.00000000E+0	0.00000000E+0	1.23091623E-5	8.92638372E-6	3.35807512E-5	2.73033711E-5	8.21196684E-5	4.39142612E-4
2.21918000E+5	9.29998196E+1	0.00000000E+0	0.00000000E+0	1.22920498E-5	8.84371207E-6	3.33832870E-5	2.73690137E-5	8.18880626E-5	4.37904078E-4
2.25220000E+5	9.39996382E+1	0.00000000E+0	0.00000000E+0	1.24324664E-5	8.86023448E-6	3.35686277E-5	2.71344694E-5	8.19957980E-5	4.38480203E-4
2.28450000E+5	9.49989533E+1	0.00000000E+0	0.00000000E+0	1.22693315E-5	8.87017654E-6	3.35693042E-5	2.72642764E-5	8.19730886E-5	4.38358763E-4
2.31748000E+5	9.59999451E+1	0.00000000E+0	0.00000000E+0	1.23316034E-5	8.82809863E-6	3.35976790E-5	2.73401472E-5	8.20975282E-5	4.39024215E-4
2.34957000E+5	9.70007438E+1	0.00000000E+0	0.00000000E+0	1.23247281E-5	8.94014048E-6	3.33280901E-5	2.72333416E-5	8.18263002E-5	4.37573798E-4
2.38201000E+5	9.80001029E+1	0.00000000E+0	0.00000000E+0	1.23018905E-5	8.83748041E-6	3.35174481E-5	2.72678259E-5	8.19246449E-5	4.38099706E-4
2.41461000E+5	9.89999853E+1	0.00000000E+0	0.00000000E+0	1.22881993E-5	8.88908015E-6	3.35498194E-5	2.70599666E-5	8.17870655E-5	4.37363987E-4
2.44688000E+5	9.99999835E+1	0.00000000E+0	0.00000000E+0	1.23864785E-5	8.84029673E-6	3.34835897E-5	2.72503021E-5	8.19606670E-5	4.38292337E-4
2.47908000E+5	1.00999681E+2	0.00000000E+0	0.00000000E+0	1.23128012E-5	8.83436308E-6	3.33586792E-5	2.72824618E-5	8.17883053E-5	4.37370616E-4
2.51073000E+5	1.01999883E+2	0.00000000E+0	0.00000000E+0	1.23839989E-5	8.80618796E-6	3.35157792E-5	2.72282096E-5	8.19341757E-5	4.38150672E-4
2.61102000E+5	9.80012384E+1	0.00000000E+0	0.00000000E+0	1.23430177E-5	8.92178821E-6	3.36062769E-5	2.71623733E-5	8.20334562E-5	4.38681584E-4
2.64998000E+5	9.89984402E+1	0.00000000E+0	0.00000000E+0	1.23889044E-5	8.84810494E-6	3.34295760E-5	2.73203912E-5	8.19869765E-5	4.38433029E-4
2.68285000E+5	1.00000181E+2	0.00000000E+0	0.00000000E+0	1.23296365E-5	8.90649961E-6	3.35478167E-5	2.73493472E-5	8.21333000E-5	4.39215508E-4
2.71556000E+5	1.00999681E+2	0.00000000E+0	0.00000000E+0	1.25029877E-5	8.89083253E-6	3.34716837E-5	2.71133753E-5	8.19788792E-5	4.38389728E-4
2.74808000E+5	1.02000088E+2	0.00000000E+0	0.00000000E+0	1.22733816E-5	8.88496743E-6	3.36522858E-5	2.72738549E-5	8.20844897E-5	4.38954490E-4
2.78048000E+5	1.03000002E+2	0.00000000E+0	0.00000000E+0	1.22871235E-5	8.88718473E-6	3.35370491E-5	2.71453741E-5	8.18567314E-5	4.37736532E-4
2.81257000E+5	1.03999927E+2	0.00000000E+0	0.00000000E+0	1.22910365E-5	8.87099908E-6	3.33626727E-5	2.73988786E-5	8.19235870E-5	4.38094048E-4
2.84434000E+5	1.04999664E+2	0.00000000E+0	0.00000000E+0	1.23087272E-5	8.83384750E-6	3.36812983E-5	2.72076967E-5	8.20315697E-5	4.38671496E-4
2.87664000E+5	1.05999984E+2	0.00000000E+0	0.00000000E+0	1.22893944E-5	8.88144778E-6	3.35366915E-5	2.73704651E-5	8.20779988E-5	4.38919780E-4
2.90948000E+5	1.06999917E+2	0.00000000E+0	0.00000000E+0	1.23388693E-5	8.86573003E-6	3.34128539E-5	2.73679408E-5	8.19853940E-5	4.38424567E-4
2.94181000E+5	1.08000044E+2	0.00000000E+0	0.00000000E+0	1.23399600E-5	8.78935859E-6	3.35951756E-5	2.73167613E-5	8.20412555E-5	4.38723291E-4
2.97283000E+5	1.08999375E+2	0.00000000E+0	0.00000000E+0	1.22047320E-5	8.96021235E-6	3.35727612E-5	2.71878424E-5	8.19255479E-5	4.38104534E-4
3.00570000E+5	1.10000661E+2	0.00000000E+0	0.00000000E+0	1.22800752E-5	8.77559588E-6	3.35627864E-5	2.72905263E-5	8.19089838E-5	4.38015956E-4
3.03648000E+5	1.10999423E+2	0.00000000E+0	0.00000000E+0	1.22807517E-5	8.88852285E-6	3.35197042E-5	2.72941890E-5	8.19831678E-5	4.38412662E-4
3.06828000E+5	1.12000648E+2	0.00000000E+0	0.00000000E+0	1.23615041E-5	8.83904801E-6	3.31690500E-5	2.73704055E-5	8.17400076E-5	4.37112340E-4
3.09988000E+5	1.12999714E+2	0.00000000E+0	0.00000000E+0	1.23551145E-5	8.75654921E-6	3.31623802E-5	2.72810074E-5	8.15550514E-5	4.36123269E-4
3.13058000E+5	1.13999604E+2	0.00000000E+0	0.00000000E+0	1.22786596E-5	8.86840330E-6	3.33987127E-5	2.73265454E-5	8.18723210E-5	4.37819898E-4
3.16165000E+5	1.14999884E+2	0.00000000E+0	0.00000000E+0	1.23725161E-5	8.77109275E-6	3.35914354E-5	2.71881523E-5	8.19231965E-5	4.38091960E-4
3.19283000E+5	1.16000370E+2	0.00000000E+0	0.00000000E+0	1.22262373E-5	8.87986825E-6	3.37420534E-5	2.72576275E-5	8.21057865E-5	4.39068377E-4
3.22464000E+5	1.16999802E+2	0.00000000E+0	0.00000000E+0	1.22388348E-5	8.86786388E-6	3.31264565E-5	2.73284825E-5	8.15616377E-5	4.36158490E-4
3.25549000E+5	1.17999334E+2	0.00000000E+0	0.00000000E+0	1.24391302E-5	8.83470879E-6	3.34698955E-5	2.73952040E-5	8.21389386E-5	4.39245661E-4
3.28594000E+5	1.18999887E+2	0.00000000E+0	0.00000000E+0	1.22809872E-5	8.90860664E-6	3.34238122E-5	2.72771302E-5	8.18905362E-5	4.37917306E-4
3.31662000E+5	1.20000224E+2	0.00000000E+0	0.00000000E+0	1.22151658E-5	8.81189213E-6	3.34093760E-5	2.74646047E-5	8.19010385E-5	4.37973468E-4
3.34762000E+5	1.20999361E+2	0.00000000E+0	0.00000000E+0	1.22085884E-5	8.85333524E-6	3.33959679E-5	2.71707806E-5	8.16286721E-5	4.36516963E-4
3.37850000E+5	1.21999728E+2	0.00000000E+0	0.00000000E+0	1.22150972E-5	8.87145506E-6	3.36433123E-5	2.70932737E-5	8.18231382E-5	4.37556889E-4
3.40901000E+5	1.23000359E+2	0.00000000E+0	0.00000000E+0	1.22889176E-5	8.86009739E-6	3.34020744E-5	2.72392156E-5	8.17903050E-5	4.37381310E-4
3.43996000E+5	1.23999409E+2	0.00000000E+0	0.00000000E+0	1.23795464E-5	8.84100006E-6	3.34168653E-5	2.74528357E-5	8.20902475E-5	4.38985281E-4
3.47140000E+5	1.25000297E+2	0.00000000E+0	0.00000000E+0	1.22296348E-5	8.78966257E-6	3.33968471E-5	2.70953300E-5	8.15114744E-5	4.35890238E-4
3.50242000E+5	1.25999969E+2	0.00000000E+0	0.00000000E+0	1.23167321E-5	8.81985531E-6	3.34265034E-5	2.72391709E-5	8.18022617E-5	4.37445250E-4
3.53382000E+5	1.26999549E+2	0.00000000E+0	0.00000000E+0	1.22476324E-5	8.88061629E-6	3.34580312E-5	2.71970453E-5	8.17833253E-5	4.37343986E-4
3.56416000E+5	1.27999616E+2	0.00000000E+0	0.00000000E+0	1.21403291E-5	8.83575485E-6	3.32744161E-5	2.73128393E-5	8.15633394E-5	4.36167590E-4
3.59342000E+5	1.28999489E+2	0.00000000E+0	0.00000000E+0	1.21908858E-5	8.85835098E-6	3.35293393E-5	2.71810564E-5	8.17596324E-5	4.37217286E-4
3.62271000E+5	1.29999119E+2	0.00000000E+0	0.00000000E+0	1.23505518E-5	8.84156929E-6	3.32527170E-5	2.72936287E-5	8.17384668E-5	4.37104101E-4
3.65240000E+5	1.31000819E+2	0.00000000E+0	0.00000000E+0	1.22539594E-5	8.83331106E-6	3.34660004E-5	2.73765001E-5	8.19297709E-5	4.38127117E-4
3.68221000E+5	1.32000594E+2	0.00000000E+0	0.00000000E+0	1.24001637E-5	8.88748871E-6	3.32450310E-5	2.71266701E-5	8.16593536E-5	4.36681035E-4
3.71925000E+5	1.32999346E+2	0.00000000E+0	0.00000000E+0	1.22661069E-5	8.84048746E-6	3.31231812E-5	2.71431866E-5	8.13729622E-5	4.35149530E-4
3.74912000E+5	1.33999881E+2	0.00000000E+0	0.00000000E+0	1.23518809E-5	8.82461176E-6	3.32385043E-5	2.70299526E-5	8.14449497E-5	4.35534490E-4
3.77885000E+5	1.35000497E+2	0.00000000E+0	0.00000000E+0	1.22788772E-5	8.83557306E-6	3.34403555E-5	2.73704621E-5	8.19252678E-5	4.38103036E-4
3.80918000E+5	1.36000496E+2	0.00000000E+0	0.00000000E+0	1.21357783E-5	8.79376934E-6	3.33031962E-5	2.70850214E-5	8.13177653E-5	4.34854360E-4
3.83954000E+5	1.36999145E+2	0.00000000E+0	0.00000000E+0	1.23105094E-5	8.82861719E-6	3.33835463E-5	2.73119929E-5	8.18346658E-5	4.37618533E-4
3.86898000E+5	1.37999057E+2	0.00000000E+0	0.00000000E+0	1.23706803E-5	8.83961723E-6	3.34098766E-5	2.71618935E-5	8.17820676E-5	4.37337260E-4
3.89815000E+5	1.39001108E+2	0.00000000E+0	0.00000000E+0	1.22445181E-5	8.80741582E-6	3.34662179E-5	2.72726837E-5	8.17908355E-5	4.37384147E-4
3.92774000E+5	1.40000421E+2	0.00000000E+0	0.00000000E+0	1.22759178E-5	8.81330476E-6	3.33224187E-5	2.72520128E-5	8.16636540E-5	4.36704032E-4
3.95713000E+5	1.40999738E+2	0.00000000E+0	0.00000000E+0	1.23808667E-5	8.85195540E-6	3.37332796E-5	2.72810819E-5	8.22471836E-5	4.39824511E-4
2.14748365E+9	1.42000000E+2	0.00000000E+0	0.00000000E+0	1.22655228E-5	8.81908045E-6	3.34051798E-5	2.71091285E-5	8.15989115E-5	4.36357815E-4
