G:\BEAR_storage\User_Experiments\20220317_arneodo\Bpm\file(1)_bpm_0076.txt
Ring Energy (GeV): 2
Lifetime (hours): 15.2903
Scan beginning: 3/21/2022	3:04:19 PM
Ring current (mA): 308.76
Source position: x (mm): 0.006 x' (mrad): -0.001 y (mm): 0 y' (mrad): 0.002
Scan end: 3/21/2022	3:06:38 PM
Ring current (mA): 309.31
Source position: x (mm): 0.006 x' (mrad): 0.001 y (mm): 0.001 y' (mrad): 0.001

SCAN TYPE: Z_MANIPULATOR

FILE INFO: FILE INFO:

SCAN PARAMETERS
waiting time (ms): 1000
Number of scans: 1
Current scan number: 1
DARK OFF 
PREDARK OFF 

SCAN PARAMETERS
Initial Z manipulator (mm): -16.000000E+0
Delta Z manipulator (mm): 200.000000E-3
Final Z manipulator (mm): -8.000000E+0


BEAR MONOCHROMATOR CONFIGURATION: 
Current Grating Position:     -151492.90
Current Mirror Position: 2556.9
Current Grating: G1200
P2 phiz position:  0.0000
Mono axis position: 25.0000
Current Photon Energy (eV): 119.999
Current Deviation Angle: 155.000
Vertical Exit Slits (um): 100.000
Exit slit y axis position: 1.3625
Horizontal Exit Slits (um):  889.156
Exit slit z axis position: 1.9229
Mitutoyo position (mm): 

Dose on sample (mJ/cm^2): NaN

ENERGY CALIBRATION:
offset grating G1200: yes
Delta 0 order G1200:  -1100.0
offset grating G1800: not
Delta 0 order G1800:  0.0
offset grating GNIM: not
Delta 0 order GNIM:  0.0
ZERO ORDER POSITIONS:
Grating G1200: Mirror position:  4938.0
Grating position: -105355.0
Grating G1800: 
Mirror position:  4938.0
Grating position: -106345.0
Grating GNIM: 
Mirror position:  10000.0
Grating position: 227300.0

Initial filter: Full Beam

EXPERIMENTAL CHAMBER CONFIGURATION: 
PsiC (deg):   -0.000186
Phi Analyzer (degrees): 89.993255
Theta Manipulator (degrees): -44.000040
Theta Analyzer (degrees): -135.001468
PhiM (degrees): -0.003077
XM (mm): -0.999063
YM (mm): 9.959088
ZM (mm): (Warning: for kinetic energy scans, 
this parameter is given in the scan settings) 
-11.801400
TiltM (°): 0.000138

ELECTRON ANALYZER CONFIGURATION: 
Current Kinetik energy (eV): 35.0
Mode: DE = COST
Pass Energy (eV):  100.000
CEM: ON
Bias Front-Back CEM (V): 3499.698
Bias Back-Collector CEM (V): 100.874
Bias Retard-Front CEM: 100.104COIL VALUES
Ix (amps):2.820
Iy (amps): 6.789
Iz (amps): 37.403

POLARIZATION SELECTOR CONFIGURATION:
Psi1 (rad): -0.001665535
Psi2 (rad): 0.001417093
Z min position (mm): 46.599650
DZ position (mm): 18.599100
Zmin 0 (mm): 65.700000
DZ0 (mm): 54.000000

BEAM SELECTOR CONFIGURATION:
Zmin position (mm): NaN
DZ position (mm): NaN
Y+ position (mm): NaN
Y- position (mm): NaN

CHANNEL ELECTRON MULTIPLIER CONFIGURATION:
CEM configured: OFF
Bias CEM: 0.000000

FLUORESCENCE DETECTOR CONFIGURATION:
Not configured

LUMINESCENCE MONOCHROMATOR CONFIGURATION:
Optical fiber position (mm): 0.000000
Optical fiber Switch inside: ON
Optical fiber Switch outside: ON
Monochromator wavelength (A): 0.000000
Limit Switches: ON

I0 MONITOR PARAMETERS:
I0 detector position(mm): NaN
Lower switch: OFF
Upper switch: OFF
Valve status:unread

PRESSURE PARAMETERS:
Monitor chamber pressure (mbar): 9.698e-10
Experimental chamber pressure -ION GAUGE-(mbar): 0.000000E+0

XMCD PARAMETERS:
Xmcd OFF
Xmcd Direction -
Xmcd current (A): 0.000000

Gated scan off

Instrument 1: AMMETER KEITHLEY 6517A B
Measure type: Current
range type: set range value
range value (ampere):  200 pA
Integration time:  set NPLC value
NPLC value: 10.000
Digital filter count: 2
SAMPLE BIAS (V): -30.000
Vsource: ON
Output Voltage value: 30.000
Vsource range: 1000 V

Range Keithley B changed to 20 nA

Range Keithley B changed to 200 pA

Range Keithley B changed to 20 nA

Range Keithley B changed to 200 pA

Keithley B Bias (V) changed to: 0.000000

Instrument 2: AMMETER KEITHLEY 6517A A
Measure type: Current
range type: set range value
range value (ampere):  200 pA
Integration time:  set NPLC value
NPLC value: 10.000
Digital filter count: 2
Vsource: OFF
Output Voltage value: -0.000
Vsource range: 100 V
Trigger source: bus

Range Keithley A changed to 20 nA

Range Keithley A changed to 200 nA

Range Keithley A changed to 200 pA

Range Keithley A changed to 20 nA

Range Keithley A changed to 200 pA

Range Keithley A changed to 20 nA

Instrument 3: COUNTER ORTEC 996Integration time (sec): 1.000


Range Keithley C changed to 200 nA


Range Keithley C changed to 2 uA


________________________________________________________________________________

RelativeTime (msec)	Number	Time (msec)	Z  manipulator (mm)	a) I_1 (Amps)	b) I_2 (Amps)	d) I_3 (Amps)	c) I_4 (Amps)	I_BPM_sum (Amps)	Delta Z(mm)	
________________________________________________________________________________

3.66100000E+3	0.00000000E+0	-6.81078770E+7	-1.60013750E+1	1.41098427E-5	1.00891692E-5	3.59001918E-5	2.92128270E-5	8.93120306E-5	4.77604442E-4
1.55830000E+4	1.00000000E+0	-6.19039970E+7	-1.58013750E+1	1.41069965E-5	1.00268197E-5	3.58059360E-5	2.91050201E-5	8.90447723E-5	4.76175253E-4
2.66350000E+4	2.00000000E+0	-5.57009870E+7	-1.56013750E+1	1.40701341E-5	1.00960624E-5	3.57848776E-5	2.91934495E-5	8.91445236E-5	4.76708683E-4
3.76940000E+4	3.00000000E+0	-4.94979700E+7	-1.54013750E+1	1.40918093E-5	1.00533706E-5	3.57949836E-5	2.92300080E-5	8.91701715E-5	4.76845837E-4
4.88280000E+4	4.00000000E+0	-4.32948780E+7	-1.52013750E+1	1.40682446E-5	1.01166558E-5	3.58050747E-5	2.91201149E-5	8.91100900E-5	4.76524546E-4
5.98610000E+4	5.00000000E+0	-3.70918870E+7	-1.50013750E+1	1.39785336E-5	1.00769502E-5	3.59259529E-5	2.92222505E-5	8.92036872E-5	4.77025065E-4
7.09030000E+4	6.00000000E+0	-3.08888870E+7	-1.48013750E+1	1.39798211E-5	1.00516957E-5	3.58595265E-5	2.89473598E-5	8.88384031E-5	4.75071674E-4
8.20100000E+4	7.00000000E+0	-2.46858220E+7	-1.46013750E+1	1.40155422E-5	1.00611401E-5	3.59312637E-5	2.90205454E-5	8.90284913E-5	4.76088189E-4
9.30720000E+4	8.00000000E+0	-1.84828020E+7	-1.44013750E+1	1.40835183E-5	1.00493443E-5	3.57227219E-5	2.92505925E-5	8.91061770E-5	4.76503620E-4
1.04145000E+5	9.00000000E+0	-1.22797710E+7	-1.42013750E+1	1.41333358E-5	1.00915891E-5	3.60763652E-5	2.91219537E-5	8.94232439E-5	4.78199165E-4
1.15169000E+5	1.00000000E+1	-6.07678900E+6	-1.40013750E+1	1.41839581E-5	1.00754988E-5	3.59273357E-5	2.92096709E-5	8.93964636E-5	4.78055955E-4
1.26296000E+5	1.10000000E+1	1.26296000E+5	-1.38013750E+1	1.41224252E-5	1.00776178E-5	3.58487023E-5	2.91603421E-5	8.92090874E-5	4.77053943E-4
2.14748365E+9	1.20000000E+1	     NaN	     NaN	1.40283721E-5	1.00559336E-5	3.60271825E-5	2.91782950E-5	8.92897832E-5	4.77485471E-4
