G:\BEAR_storage\User_Experiments\20220317_arneodo\file(1)_Region 4__0053.txt
Ring Energy (GeV): 2
Lifetime (hours): 0
Scan beginning: 3/19/2022	12:31:19 PM
Ring current (mA): 309.45
Source position: x (mm): -0.004 x' (mrad): 0.001 y (mm): 0.004 y' (mrad): 0.007
Scan end: 3/19/2022	12:51:55 PM
Ring current (mA): 309.01
Source position: x (mm): -0.004 x' (mrad): 0.002 y (mm): 0.004 y' (mrad): 0.007

SCAN TYPE: PHOTON ENERGY VS VAR_1 VS VAR_2

FILE INFO: FILE INFO:

SCAN PARAMETERS
waiting time (ms): 0
Number of scans: 1
Current scan number: 1
DARK OFF 
PREDARK OFF 

SCAN PARAMETERS
Regions configuration: 
number of regions: 7
Mirror grating scan: on
Timed acquisition: off
Region 1:
Initial energy (eV): 3.000000
Final energy (eV): 4.500000
Delta energy (eV): 0.100000
Deviation angle choice: Degrees: 
Deviation angle (°): NaN
B270 window
GNIM channel
range keithley B 200 pA
range keithley C 2 uA
range keithley A 200 pA
Var_1: PsiC 0.000000
Var_2: PhiM0.000000
Bias CEM (V): 0.000000
Bias Keithley B (V): -30.000000
Name region: 
Region 2:
Initial energy (eV): 4.000000
Final energy (eV): 8.000000
Delta energy (eV): 0.100000
Deviation angle choice: Degrees: 
Deviation angle (°): NaN
SiO2 window
GNIM channel
range keithley B 200 pA
range keithley C 2 uA
range keithley A 200 pA
Var_1: PsiC 0.000000
Var_2: PhiM0.000000
Bias CEM (V): 0.000000
Bias Keithley B (V): -30.000000
Name region: 
Region 3:
Initial energy (eV): 7.000000
Final energy (eV): 12.000000
Delta energy (eV): 0.100000
Deviation angle choice: Degrees: 
Deviation angle (°): NaN
filter LiF window
GNIM channel
range keithley B 200 pA
range keithley C 2 uA
range keithley A 200 pA
Var_1: PsiC 0.000000
Var_2: PhiM0.000000
Bias CEM (V): 0.000000
Bias Keithley B (V): -30.000000
Name region: 
Region 4:
Initial energy (eV): 11.000000
Final energy (eV): 18.000000
Delta energy (eV): 0.100000
Deviation angle choice: Degrees: 
Deviation angle (°): NaN
In filter
GNIM channel
range keithley B 200 pA
range keithley C 2 uA
range keithley A 200 pA
Var_1: PsiC 0.000000
Var_2: PhiM0.000000
Bias CEM (V): 0.000000
Bias Keithley B (V): -30.000000
Name region: 
Region 5:
Initial energy (eV): 15.000000
Final energy (eV): 25.000000
Delta energy (eV): 0.100000
Deviation angle choice: Degrees: 
Deviation angle (°): NaN
Sn filter
GNIM channel
range keithley B 200 pA
range keithley C 2 uA
range keithley A 200 pA
Var_1: PsiC 0.000000
Var_2: PhiM0.000000
Bias CEM (V): 0.000000
Bias Keithley B (V): -30.000000
Name region: 
Region 6:
Initial energy (eV): 23.000000
Final energy (eV): 45.000000
Delta energy (eV): 0.100000
Deviation angle choice: Degrees: 
Deviation angle (°): NaN
Full Beam
GNIM channel
range keithley B 20 nA
range keithley C 2 uA
range keithley A 20 nA
Var_1: PsiC 0.000000
Var_2: PhiM0.000000
Bias CEM (V): 0.000000
Bias Keithley B (V): -30.000000
Name region: 
Region 7:
Initial energy (eV): 23.000000
Final energy (eV): 45.000000
Delta energy (eV): 0.100000
Deviation angle choice: Degrees: 
Deviation angle (°): NaN
Al filter
GNIM channel
range keithley B 20 nA
range keithley C 2 uA
range keithley A 20 nA
Var_1: PsiC 0.000000
Var_2: PhiM0.000000
Bias CEM (V): 0.000000
Bias Keithley B (V): -30.000000
Name region: 

BEAR MONOCHROMATOR CONFIGURATION: 
Current Grating Position:     200056.70
Current Mirror Position: 9999.9
Current Grating: GNIM
P2 phiz position:  -0.0195
Mono axis position: 73.5000
Current Photon Energy (eV): 45.000
Current Deviation Angle: 29.905
Vertical Exit Slits (um): 100.000
Exit slit y axis position: 1.3625
Horizontal Exit Slits (um):  889.156
Exit slit z axis position: 1.9229
Mitutoyo position (mm): 

Dose on sample (mJ/cm^2): NaN

ENERGY CALIBRATION:
offset grating G1200: yes
Delta 0 order G1200:  -800.0
offset grating G1800: not
Delta 0 order G1800:  0.0
offset grating GNIM: not
Delta 0 order GNIM:  0.0
ZERO ORDER POSITIONS:
Grating G1200: Mirror position:  4938.0
Grating position: -105355.0
Grating G1800: 
Mirror position:  4938.0
Grating position: -106345.0
Grating GNIM: 
Mirror position:  10000.0
Grating position: 227300.0

Initial filter: Al filter

EXPERIMENTAL CHAMBER CONFIGURATION: 
PsiC (deg):   -0.000186
Phi Analyzer (degrees): 89.993255
Theta Manipulator (degrees): -44.000040
Theta Analyzer (degrees): -135.001450
PhiM (degrees): -0.004103
XM (mm): 0.000425
YM (mm): 19.932987
ZM (mm): (Warning: for kinetic energy scans, 
this parameter is given in the scan settings) 
-6.601438
TiltM (°): 0.000138

ELECTRON ANALYZER CONFIGURATION: 
Current Kinetik energy (eV): 35.0
Mode: DE = COST
Pass Energy (eV):  50.000
CEM: ON
Bias Front-Back CEM (V): 3499.561
Bias Back-Collector CEM (V): 100.874
Bias Retard-Front CEM: 100.087COIL VALUES
Ix (amps):2.820
Iy (amps): 6.789
Iz (amps): 37.337

POLARIZATION SELECTOR CONFIGURATION:
Psi1 (rad): -0.001665535
Psi2 (rad): 0.001417093
Z min position (mm): 46.599650
DZ position (mm): 18.599100
Zmin 0 (mm): 66.500000
DZ0 (mm): 53.000000

BEAM SELECTOR CONFIGURATION:
Zmin position (mm): NaN
DZ position (mm): NaN
Y+ position (mm): NaN
Y- position (mm): NaN

CHANNEL ELECTRON MULTIPLIER CONFIGURATION:
CEM configured: OFF
Bias CEM: 0.000000

FLUORESCENCE DETECTOR CONFIGURATION:
Not configured

LUMINESCENCE MONOCHROMATOR CONFIGURATION:
Optical fiber position (mm): 0.000000
Optical fiber Switch inside: OFF
Optical fiber Switch outside: ON
Monochromator wavelength (A): 0.000000
Limit Switches: ON

I0 MONITOR PARAMETERS:
I0 detector position(mm): -0.000000E+0
Lower switch: OFF
Upper switch: OFF
Valve status:open

PRESSURE PARAMETERS:
Monitor chamber pressure (mbar): 8.784e-10
Experimental chamber pressure -ION GAUGE-(mbar): 0.000000E+0

XMCD PARAMETERS:
Xmcd OFF
Xmcd Direction -
Xmcd current (A): 0.000000

Gated scan off

Instrument 1: AMMETER KEITHLEY 6517A B
Measure type: Current
range type: set range value
range value (ampere):  200 pA
Integration time:  set NPLC value
NPLC value: 10.000
Digital filter count: 2
SAMPLE BIAS (V): -30.000
Vsource: ON
Output Voltage value: 30.000
Vsource range: 1000 V

Range Keithley B changed to 20 nA

Range Keithley B changed to 200 pA

Range Keithley B changed to 20 nA

Range Keithley B changed to 200 pA

Range Keithley B changed to 20 nA

Range Keithley B changed to 200 pA

Range Keithley B changed to 20 nA

Range Keithley B changed to 200 nA

Range Keithley B changed to 200 pA

Range Keithley B changed to 20 nA

Range Keithley B changed to 200 pA

Range Keithley B changed to 20 nA

Range Keithley B changed to 200 pA

Range Keithley B changed to 20 nA

Range Keithley B changed to 200 pA

Range Keithley B changed to 20 nA

Range Keithley B changed to 200 pA

Range Keithley B changed to 20 nA

Range Keithley B changed to 200 pA

Range Keithley B changed to 20 nA

Range Keithley B changed to 200 pA

Range Keithley B changed to 20 nA

Range Keithley B changed to 200 pA

Range Keithley B changed to 20 nA

Range Keithley B changed to 200 pA

Range Keithley B changed to 20 nA

Range Keithley B changed to 200 pA

Range Keithley B changed to 20 nA

Range Keithley B changed to 200 pA

Range Keithley B changed to 20 nA

Range Keithley B changed to 200 pA

Range Keithley B changed to 20 nA

Range Keithley B changed to 200 pA

Range Keithley B changed to 20 nA

Range Keithley B changed to 200 pA

Range Keithley B changed to 20 nA

Range Keithley B changed to 200 pA

Range Keithley B changed to 20 nA

Range Keithley B changed to 200 pA

Instrument 2: AMMETER KEITHLEY 6517A A
Measure type: Current
range type: set range value
range value (ampere):  200 nA
Integration time:  set NPLC value
NPLC value: 10.000
Digital filter count: 2
Vsource: OFF
Output Voltage value: -0.000
Vsource range: 100 V
Trigger source: bus

Range Keithley A changed to 20 nA

Range Keithley A changed to 200 nA

Range Keithley A changed to 200 pA

Range Keithley A changed to 20 nA

Range Keithley A changed to 200 pA

Range Keithley A changed to 20 nA

Range Keithley A changed to 200 nA

Range Keithley A changed to 200 pA

Range Keithley A changed to 20 nA

Range Keithley A changed to 200 pA

Range Keithley A changed to 20 nA

Range Keithley A changed to 200 nA

Range Keithley A changed to 200 pA

Range Keithley A changed to 20 nA

Range Keithley A changed to 200 pA

Range Keithley A changed to 20 nA

Range Keithley A changed to 200 pA

Range Keithley A changed to 20 nA

Range Keithley A changed to 200 pA

Range Keithley A changed to 20 nA

Range Keithley A changed to 200 pA

Range Keithley A changed to 20 nA

Range Keithley A changed to 200 nA

Range Keithley A changed to 200 pA

Range Keithley A changed to 20 nA

Range Keithley A changed to 200 pA

Range Keithley A changed to 20 nA

Range Keithley A changed to 200 nA

Range Keithley A changed to 200 pA

Range Keithley A changed to 20 nA

Range Keithley A changed to 200 nA

Range Keithley A changed to 200 pA

Range Keithley A changed to 20 nA

Range Keithley A changed to 200 pA

Range Keithley A changed to 20 nA

Range Keithley A changed to 200 pA

Range Keithley A changed to 20 nA

Range Keithley A changed to 200 nA

Range Keithley A changed to 200 pA

Range Keithley A changed to 20 nA

Range Keithley A changed to 200 pA

Range Keithley A changed to 20 nA

Range Keithley A changed to 200 nA

Range Keithley A changed to 20 nA

Range Keithley A changed to 200 nA

Range Keithley A changed to 200 pA

Range Keithley A changed to 20 nA

Range Keithley A changed to 200 nA

Range Keithley A changed to 2 uA

Range Keithley A changed to 20 nA

Range Keithley A changed to 200 nA

Range Keithley A changed to 2 uA

Range Keithley A changed to 20 nA

Range Keithley A changed to 200 nA

Range Keithley A changed to 200 pA

Range Keithley A changed to 2 uA

Range Keithley A changed to 20 nA

Range Keithley A changed to 200 nA

Range Keithley A changed to 200 pA

Range Keithley A changed to 20 nA

Range Keithley A changed to 2 uA

Range Keithley A changed to 20 nA

Range Keithley A changed to 200 nA

Range Keithley A changed to 20 nA

Range Keithley A changed to 200 nA

Range Keithley A changed to 200 pA

Range Keithley A changed to 2 uA

Range Keithley A changed to 20 nA

Range Keithley A changed to 200 nA

Range Keithley A changed to 20 nA

Range Keithley A changed to 200 nA

Range Keithley A changed to 200 pA

Range Keithley A changed to 20 nA

Range Keithley A changed to 200 nA

Range Keithley A changed to 20 nA

Range Keithley A changed to 200 nA

Range Keithley A changed to 200 pA

Range Keithley A changed to 20 nA

Range Keithley A changed to 200 nA

Range Keithley A changed to 200 pA

Range Keithley A changed to 20 nA

Range Keithley A changed to 200 pA

Range Keithley A changed to 20 nA

Range Keithley A changed to 200 pA

Instrument 3: AMMETER KEITHLEY 6517A C 
Measure type: Current
range type: set range value
range value (ampere):  2 uA
Integration time:  set NPLC value
NPLC value: 10.000
Digital filter count: 2
Vsource: OFF
Output Voltage value: -0.000
Vsource range: 100 V
Trigger source: bus


Range Keithley C changed to 20 uA


Range Keithley C changed to 2 uA


Range Keithley C changed to 200 uA


Range Keithley C changed to 2 uA


Range Keithley C changed to 20 uA


Range Keithley C changed to 200 uA


Range Keithley C changed to 2 uA


Range Keithley C changed to 20 uA


Range Keithley C changed to 2 uA


Range Keithley C changed to 20 uA


Range Keithley C changed to 200 uA


Range Keithley C changed to 2 uA


Range Keithley C changed to 20 uA


Range Keithley C changed to 2 uA


Range Keithley C changed to 20 uA


Range Keithley C changed to 2 uA


Range Keithley C changed to 20 uA


Range Keithley C changed to 2 uA


________________________________________________________________________________

RelativeTime (msec)	Photon Energy	Var_1	Var_2	INSTR_1_Sample with Bias _(ampere ) 	INSTR_2_Monitor IM_(ampere)  	INSTR_3_Diode A3_(ampere)	I_BPM_sum (Amps)	
________________________________________________________________________________

8.46114000E+5	1.10000336E+1	0.00000000E+0	0.00000000E+0	2.02400000E-13	2.51000000E-14	2.48000000E-10	8.86482166E-5
8.52629000E+5	1.10999133E+1	0.00000000E+0	0.00000000E+0	1.74300000E-13	2.18000000E-14	2.08000000E-10	8.87636797E-5
8.58223000E+5	1.11999011E+1	0.00000000E+0	0.00000000E+0	1.57000000E-13	2.49000000E-14	2.66000000E-10	8.91301142E-5
8.63952000E+5	1.13000579E+1	0.00000000E+0	0.00000000E+0	1.74000000E-13	4.42000000E-14	1.68000000E-10	8.84796129E-5
8.69557000E+5	1.13999723E+1	0.00000000E+0	0.00000000E+0	1.61700000E-13	7.86000000E-14	1.87000000E-10	8.89364736E-5
8.75163000E+5	1.15000265E+1	0.00000000E+0	0.00000000E+0	1.48200000E-13	1.52700000E-13	2.02000000E-10	8.88054954E-5
8.80771000E+5	1.16000051E+1	0.00000000E+0	0.00000000E+0	1.81800000E-13	2.28700000E-13	2.15000000E-10	8.86653291E-5
8.86339000E+5	1.17000145E+1	0.00000000E+0	0.00000000E+0	1.35400000E-13	2.80800000E-13	2.00000000E-10	8.86135088E-5
8.91945000E+5	1.17999881E+1	0.00000000E+0	0.00000000E+0	1.70500000E-13	3.22500000E-13	2.07000000E-10	8.87355046E-5
8.97595000E+5	1.18999722E+1	0.00000000E+0	0.00000000E+0	1.49500000E-13	3.80500000E-13	1.44000000E-10	8.86812465E-5
9.03204000E+5	1.20000412E+1	0.00000000E+0	0.00000000E+0	2.35300000E-13	4.73900000E-13	2.13000000E-10	8.86275516E-5
9.08788000E+5	1.20999767E+1	0.00000000E+0	0.00000000E+0	1.44900000E-13	6.26300000E-13	2.18000000E-10	8.89740543E-5
9.14254000E+5	1.22000095E+1	0.00000000E+0	0.00000000E+0	2.29400000E-13	8.31000000E-13	2.48000000E-10	8.88283746E-5
9.19745000E+5	1.23000038E+1	0.00000000E+0	0.00000000E+0	1.81600000E-13	1.03790000E-12	2.41000000E-10	8.91883301E-5
9.25190000E+5	1.24000298E+1	0.00000000E+0	0.00000000E+0	1.53200000E-13	1.17050000E-12	2.64000000E-10	8.92143952E-5
9.30683000E+5	1.24999850E+1	0.00000000E+0	0.00000000E+0	2.30400000E-13	1.19540000E-12	2.54000000E-10	8.91450541E-5
9.36106000E+5	1.25999948E+1	0.00000000E+0	0.00000000E+0	1.64000000E-13	1.14990000E-12	2.43000000E-10	8.89052348E-5
9.41569000E+5	1.27000098E+1	0.00000000E+0	0.00000000E+0	1.81700000E-13	1.10740000E-12	2.56000000E-10	8.88406859E-5
9.47011000E+5	1.27999917E+1	0.00000000E+0	0.00000000E+0	1.58800000E-13	1.09030000E-12	2.21000000E-10	8.94165593E-5
9.52313000E+5	1.28999421E+1	0.00000000E+0	0.00000000E+0	1.89800000E-13	1.13180000E-12	2.54000000E-10	8.91931789E-5
9.57693000E+5	1.30000017E+1	0.00000000E+0	0.00000000E+0	1.80800000E-13	1.23500000E-12	2.99000000E-10	8.92537462E-5
9.62994000E+5	1.31000269E+1	0.00000000E+0	0.00000000E+0	1.78600000E-13	1.40240000E-12	2.65000000E-10	8.92020451E-5
9.68361000E+5	1.31999658E+1	0.00000000E+0	0.00000000E+0	1.56900000E-13	1.63000000E-12	2.93000000E-10	8.86846499E-5
9.73700000E+5	1.33000102E+1	0.00000000E+0	0.00000000E+0	1.49100000E-13	1.91040000E-12	2.88000000E-10	8.88584899E-5
9.79002000E+5	1.34000566E+1	0.00000000E+0	0.00000000E+0	2.08900000E-13	2.17050000E-12	3.14000000E-10	8.89629857E-5
9.84319000E+5	1.34999812E+1	0.00000000E+0	0.00000000E+0	1.47000000E-13	2.36720000E-12	3.15000000E-10	8.88601767E-5
9.89661000E+5	1.35999713E+1	0.00000000E+0	0.00000000E+0	1.70200000E-13	2.46720000E-12	3.42000000E-10	8.88981001E-5
9.94993000E+5	1.37000426E+1	0.00000000E+0	0.00000000E+0	1.89900000E-13	2.49460000E-12	3.11000000E-10	8.88573603E-5
1.00028700E+6	1.37999634E+1	0.00000000E+0	0.00000000E+0	2.03200000E-13	2.47420000E-12	3.44000000E-10	8.89934318E-5
1.00563500E+6	1.39000103E+1	0.00000000E+0	0.00000000E+0	1.23100000E-13	2.44730000E-12	3.06000000E-10	8.90041696E-5
1.01092300E+6	1.39999808E+1	0.00000000E+0	0.00000000E+0	2.26300000E-13	2.44610000E-12	3.21000000E-10	8.88634937E-5
1.01618600E+6	1.41000188E+1	0.00000000E+0	0.00000000E+0	1.65100000E-13	2.49250000E-12	3.24000000E-10	8.88533788E-5
1.02148400E+6	1.41999807E+1	0.00000000E+0	0.00000000E+0	2.06500000E-13	2.60950000E-12	3.12000000E-10	8.89233606E-5
1.02679600E+6	1.42999998E+1	0.00000000E+0	0.00000000E+0	1.88600000E-13	2.77810000E-12	3.34000000E-10	8.87985365E-5
1.03206100E+6	1.43999636E+1	0.00000000E+0	0.00000000E+0	2.02000000E-13	3.01330000E-12	3.56000000E-10	8.89694618E-5
1.03734200E+6	1.45000119E+1	0.00000000E+0	0.00000000E+0	1.87600000E-13	3.28470000E-12	3.61000000E-10	8.88528453E-5
1.04267900E+6	1.46000143E+1	0.00000000E+0	0.00000000E+0	1.21200000E-13	3.55710000E-12	3.99000000E-10	8.89752613E-5
1.04799800E+6	1.46999753E+1	0.00000000E+0	0.00000000E+0	1.52400000E-13	3.79100000E-12	4.06000000E-10	8.90109258E-5
1.05316700E+6	1.47999184E+1	0.00000000E+0	0.00000000E+0	2.42800000E-13	3.95000000E-12	4.24000000E-10	8.88195978E-5
1.05846300E+6	1.49000868E+1	0.00000000E+0	0.00000000E+0	1.97900000E-13	4.02290000E-12	4.34000000E-10	8.91202139E-5
1.06367100E+6	1.49998735E+1	0.00000000E+0	0.00000000E+0	1.58600000E-13	4.03190000E-12	4.11000000E-10	8.86700646E-5
1.06889500E+6	1.51000184E+1	0.00000000E+0	0.00000000E+0	1.90300000E-13	4.00560000E-12	4.24000000E-10	8.93152463E-5
1.07386800E+6	1.52000367E+1	0.00000000E+0	0.00000000E+0	1.58200000E-13	3.97450000E-12	4.64000000E-10	8.88593541E-5
1.07981000E+6	1.52999350E+1	0.00000000E+0	0.00000000E+0	1.81900000E-13	3.96970000E-12	4.13000000E-10	8.89396475E-5
1.08477300E+6	1.54000310E+1	0.00000000E+0	0.00000000E+0	1.71300000E-13	4.00660000E-12	4.49000000E-10	8.88333784E-5
1.08992500E+6	1.54999926E+1	0.00000000E+0	0.00000000E+0	1.71700000E-13	4.10240000E-12	4.46000000E-10	8.89556961E-5
1.09509500E+6	1.56000273E+1	0.00000000E+0	0.00000000E+0	1.75600000E-13	4.24060000E-12	5.50000000E-10	8.88343738E-5
1.10003900E+6	1.56999717E+1	0.00000000E+0	0.00000000E+0	2.15500000E-13	4.39810000E-12	4.79000000E-10	8.89509247E-5
1.10519200E+6	1.58000218E+1	0.00000000E+0	0.00000000E+0	2.30300000E-13	4.52280000E-12	5.24000000E-10	8.87607025E-5
1.11040800E+6	1.58999918E+1	0.00000000E+0	0.00000000E+0	1.72400000E-13	4.56670000E-12	5.02000000E-10	8.86916475E-5
1.11539300E+6	1.60000006E+1	0.00000000E+0	0.00000000E+0	1.38900000E-13	4.48530000E-12	4.26000000E-10	8.86109100E-5
1.12056300E+6	1.61000045E+1	0.00000000E+0	0.00000000E+0	1.73100000E-13	4.26590000E-12	4.89000000E-10	8.88465034E-5
1.12551700E+6	1.61999581E+1	0.00000000E+0	0.00000000E+0	2.01700000E-13	3.91630000E-12	4.35000000E-10	8.88115810E-5
1.13068600E+6	1.62999882E+1	0.00000000E+0	0.00000000E+0	1.69300000E-13	3.41470000E-12	4.27000000E-10	8.86863337E-5
1.13584000E+6	1.64000084E+1	0.00000000E+0	0.00000000E+0	2.31300000E-13	2.56100000E-12	3.79000000E-10	8.85450379E-5
1.14078500E+6	1.64999956E+1	0.00000000E+0	0.00000000E+0	1.65000000E-13	1.22500000E-12	2.74000000E-10	8.86127339E-5
1.14595000E+6	1.65999710E+1	0.00000000E+0	0.00000000E+0	1.76600000E-13	3.92700000E-13	2.33000000E-10	8.90023278E-5
1.15115000E+6	1.67000029E+1	0.00000000E+0	0.00000000E+0	1.91600000E-13	1.75800000E-13	8.90000000E-11	8.89622228E-5
1.15613600E+6	1.67999562E+1	0.00000000E+0	0.00000000E+0	1.72900000E-13	1.26100000E-13	2.33000000E-10	8.88986187E-5
1.16128700E+6	1.69000163E+1	0.00000000E+0	0.00000000E+0	1.76200000E-13	1.14500000E-13	1.69000000E-10	8.91646342E-5
1.16625200E+6	1.69999764E+1	0.00000000E+0	0.00000000E+0	1.02400000E-13	1.06500000E-13	1.95000000E-10	8.90121328E-5
1.17128600E+6	1.70999075E+1	0.00000000E+0	0.00000000E+0	2.41200000E-13	1.06700000E-13	1.87000000E-10	8.92901229E-5
1.17634000E+6	1.71999808E+1	0.00000000E+0	0.00000000E+0	2.23200000E-13	1.07600000E-13	1.91000000E-10	8.90686588E-5
1.18118100E+6	1.72999851E+1	0.00000000E+0	0.00000000E+0	1.74100000E-13	1.03300000E-13	2.13000000E-10	8.90354918E-5
1.18623800E+6	1.74000704E+1	0.00000000E+0	0.00000000E+0	1.73600000E-13	8.43000000E-14	1.91000000E-10	8.87129353E-5
1.19107700E+6	1.74999190E+1	0.00000000E+0	0.00000000E+0	2.00900000E-13	6.80000000E-14	1.65000000E-10	8.92298388E-5
1.19615800E+6	1.76001355E+1	0.00000000E+0	0.00000000E+0	1.62600000E-13	5.92000000E-14	2.09000000E-10	8.92115819E-5
1.20123900E+6	1.76999703E+1	0.00000000E+0	0.00000000E+0	1.73100000E-13	6.25000000E-14	1.89000000E-10	8.87697981E-5
1.20607800E+6	1.77999862E+1	0.00000000E+0	0.00000000E+0	1.71500000E-13	6.35000000E-14	1.94000000E-10	8.86834697E-5
1.21115500E+6	1.79000654E+1	0.00000000E+0	0.00000000E+0	1.78100000E-13	6.01000000E-14	2.00000000E-10	8.90224086E-5
1.21617300E+6	1.79998995E+1	0.00000000E+0	0.00000000E+0	1.85000000E-13	6.19000000E-14	1.96000000E-10	8.89713542E-5
