G:\BEAR_storage\User_Experiments\20220317_arneodo\file(1)_Region 4__0083.txt
Ring Energy (GeV): 2
Lifetime (hours): 15.6872
Scan beginning: 3/21/2022	11:00:25 PM
Ring current (mA): 309.13
Source position: x (mm): 0.008 x' (mrad): -0 y (mm): -0.002 y' (mrad): 0.002
Scan end: 3/21/2022	11:24:25 PM
Ring current (mA): 308.75
Source position: x (mm): 0.008 x' (mrad): -0 y (mm): -0.001 y' (mrad): 0.002

SCAN TYPE: PHOTON ENERGY VS VAR_1 VS VAR_2

FILE INFO: FILE INFO:

SCAN PARAMETERS
waiting time (ms): 1000
Number of scans: 1
Current scan number: 1
DARK OFF 
PREDARK OFF 

SCAN PARAMETERS
Regions configuration: 
number of regions: 7
Mirror grating scan: on
Timed acquisition: off
Region 1:
Initial energy (eV): 3.000000
Final energy (eV): 4.500000
Delta energy (eV): 0.100000
Deviation angle choice: Degrees: 
Deviation angle (°): NaN
B270 window
GNIM channel
range keithley B 200 pA
range keithley C 200 pA
range keithley A 200 pA
Var_1: PsiC 0.000000
Var_2: PhiM0.000000
Bias CEM (V): 0.000000
Bias Keithley B (V): -30.000000
Name region: 
Region 2:
Initial energy (eV): 4.000000
Final energy (eV): 8.000000
Delta energy (eV): 0.100000
Deviation angle choice: Degrees: 
Deviation angle (°): NaN
SiO2 window
GNIM channel
range keithley B 200 pA
range keithley C 200 pA
range keithley A 200 pA
Var_1: PsiC 0.000000
Var_2: PhiM0.000000
Bias CEM (V): 0.000000
Bias Keithley B (V): -30.000000
Name region: 
Region 3:
Initial energy (eV): 7.000000
Final energy (eV): 12.000000
Delta energy (eV): 0.100000
Deviation angle choice: Degrees: 
Deviation angle (°): NaN
filter LiF window
GNIM channel
range keithley B 200 pA
range keithley C 200 pA
range keithley A 200 pA
Var_1: PsiC 0.000000
Var_2: PhiM0.000000
Bias CEM (V): 0.000000
Bias Keithley B (V): -30.000000
Name region: 
Region 4:
Initial energy (eV): 11.000000
Final energy (eV): 18.000000
Delta energy (eV): 0.100000
Deviation angle choice: Degrees: 
Deviation angle (°): NaN
In filter
GNIM channel
range keithley B 200 pA
range keithley C 200 pA
range keithley A 200 pA
Var_1: PsiC 0.000000
Var_2: PhiM0.000000
Bias CEM (V): 0.000000
Bias Keithley B (V): -30.000000
Name region: 
Region 5:
Initial energy (eV): 15.000000
Final energy (eV): 25.000000
Delta energy (eV): 0.100000
Deviation angle choice: Degrees: 
Deviation angle (°): NaN
Sn filter
GNIM channel
range keithley B 200 pA
range keithley C 200 pA
range keithley A 200 pA
Var_1: PsiC 0.000000
Var_2: PhiM0.000000
Bias CEM (V): 0.000000
Bias Keithley B (V): -30.000000
Name region: 
Region 6:
Initial energy (eV): 23.000000
Final energy (eV): 45.000000
Delta energy (eV): 0.100000
Deviation angle choice: Degrees: 
Deviation angle (°): NaN
Full Beam
GNIM channel
range keithley B 20 nA
range keithley C 200 pA
range keithley A 20 nA
Var_1: PsiC 0.000000
Var_2: PhiM0.000000
Bias CEM (V): 0.000000
Bias Keithley B (V): -30.000000
Name region: 
Region 7:
Initial energy (eV): 23.000000
Final energy (eV): 45.000000
Delta energy (eV): 0.100000
Deviation angle choice: Degrees: 
Deviation angle (°): NaN
Al filter
GNIM channel
range keithley B 20 nA
range keithley C 200 pA
range keithley A 20 nA
Var_1: PsiC 0.000000
Var_2: PhiM0.000000
Bias CEM (V): 0.000000
Bias Keithley B (V): -30.000000
Name region: 

BEAR MONOCHROMATOR CONFIGURATION: 
Current Grating Position:     200056.90
Current Mirror Position: 10000.1
Current Grating: GNIM
P2 phiz position:  -0.0195
Mono axis position: 73.5000
Current Photon Energy (eV): 45.000
Current Deviation Angle: 29.905
Vertical Exit Slits (um): 100.000
Exit slit y axis position: 1.3625
Horizontal Exit Slits (um):  889.156
Exit slit z axis position: 1.9229
Mitutoyo position (mm): 

Dose on sample (mJ/cm^2): NaN

ENERGY CALIBRATION:
offset grating G1200: yes
Delta 0 order G1200:  -1100.0
offset grating G1800: not
Delta 0 order G1800:  0.0
offset grating GNIM: not
Delta 0 order GNIM:  0.0
ZERO ORDER POSITIONS:
Grating G1200: Mirror position:  4938.0
Grating position: -105355.0
Grating G1800: 
Mirror position:  4938.0
Grating position: -106345.0
Grating GNIM: 
Mirror position:  10000.0
Grating position: 227300.0

Initial filter: Al filter

EXPERIMENTAL CHAMBER CONFIGURATION: 
PsiC (deg):   -0.000186
Phi Analyzer (degrees): 89.993255
Theta Manipulator (degrees): -44.000040
Theta Analyzer (degrees): -135.001468
PhiM (degrees): -0.003077
XM (mm): -4.499125
YM (mm): 25.932050
ZM (mm): (Warning: for kinetic energy scans, 
this parameter is given in the scan settings) 
-14.001375
TiltM (°): 0.000138

ELECTRON ANALYZER CONFIGURATION: 
Current Kinetik energy (eV): 35.0
Mode: DE = COST
Pass Energy (eV):  100.000
CEM: ON
Bias Front-Back CEM (V): 3499.698
Bias Back-Collector CEM (V): 100.874
Bias Retard-Front CEM: 100.104COIL VALUES
Ix (amps):2.820
Iy (amps): 6.789
Iz (amps): 37.403

POLARIZATION SELECTOR CONFIGURATION:
Psi1 (rad): -0.001665535
Psi2 (rad): 0.001417093
Z min position (mm): 46.599650
DZ position (mm): 18.599100
Zmin 0 (mm): 65.700000
DZ0 (mm): 54.000000

BEAM SELECTOR CONFIGURATION:
Zmin position (mm): NaN
DZ position (mm): NaN
Y+ position (mm): NaN
Y- position (mm): NaN

CHANNEL ELECTRON MULTIPLIER CONFIGURATION:
CEM configured: OFF
Bias CEM: 0.000000

FLUORESCENCE DETECTOR CONFIGURATION:
Not configured

LUMINESCENCE MONOCHROMATOR CONFIGURATION:
Optical fiber position (mm): 0.000000
Optical fiber Switch inside: ON
Optical fiber Switch outside: ON
Monochromator wavelength (A): 0.000000
Limit Switches: ON

I0 MONITOR PARAMETERS:
I0 detector position(mm): NaN
Lower switch: OFF
Upper switch: OFF
Valve status:unread

PRESSURE PARAMETERS:
Monitor chamber pressure (mbar): 9.049e-10
Experimental chamber pressure -ION GAUGE-(mbar): 0.000000E+0

XMCD PARAMETERS:
Xmcd OFF
Xmcd Direction -
Xmcd current (A): 0.000000

Gated scan off

Instrument 1: AMMETER KEITHLEY 6517A B
Measure type: Current
range type: set range value
range value (ampere):  200 pA
Integration time:  set NPLC value
NPLC value: 10.000
Digital filter count: 2
SAMPLE BIAS (V): -30.000
Vsource: ON
Output Voltage value: 30.000
Vsource range: 1000 V

Range Keithley B changed to 20 nA

Range Keithley B changed to 200 pA

Range Keithley B changed to 20 nA

Range Keithley B changed to 200 pA

Keithley B Bias (V) changed to: 0.000000

Range Keithley B changed to 20 nA

Keithley B Bias (V) changed to: -30.000000

Range Keithley B changed to 200 pA

Range Keithley B changed to 20 nA

Range Keithley B changed to 200 pA

Range Keithley B changed to 20 nA

Range Keithley B changed to 200 pA

Range Keithley B changed to 20 nA

Range Keithley B changed to 200 pA

Keithley B Bias (V) changed to: 0.000000

Keithley B Bias (V) changed to: -30.000000

Range Keithley B changed to 20 nA

Range Keithley B changed to 200 pA

Range Keithley B changed to 20 nA

Range Keithley B changed to 200 pA

Instrument 2: AMMETER KEITHLEY 6517A A
Measure type: Current
range type: set range value
range value (ampere):  200 pA
Integration time:  set NPLC value
NPLC value: 10.000
Digital filter count: 2
Vsource: OFF
Output Voltage value: -0.000
Vsource range: 100 V
Trigger source: bus

Range Keithley A changed to 20 nA

Range Keithley A changed to 200 nA

Range Keithley A changed to 200 pA

Range Keithley A changed to 20 nA

Range Keithley A changed to 200 pA

Range Keithley A changed to 20 nA

Range Keithley A changed to 200 nA

Range Keithley A changed to 200 pA

Range Keithley A changed to 20 nA

Range Keithley A changed to 200 pA

Range Keithley A changed to 20 nA

Range Keithley A changed to 200 nA

Range Keithley A changed to 200 pA

Range Keithley A changed to 20 nA

Range Keithley A changed to 200 pA

Range Keithley A changed to 20 nA

Range Keithley A changed to 200 pA

Range Keithley A changed to 20 nA

Range Keithley A changed to 200 pA

Range Keithley A changed to 20 nA

Range Keithley A changed to 200 pA

Instrument 3: COUNTER ORTEC 996Integration time (sec): 1.000


Range Keithley C changed to 200 nA


Range Keithley C changed to 2 uA


Range Keithley C changed to 200 nA


Range Keithley C changed to 2 uA


Range Keithley C changed to 200 pA


________________________________________________________________________________

RelativeTime (msec)	Photon Energy	Var_1	Var_2	INSTR_1_Sample with Bias _(ampere ) 	INSTR_2_Monitor IM_(ampere)  	INSTR_3_Ortec 996 counts_(counts)	I_BPM_sum (Amps)	
________________________________________________________________________________

9.72640000E+5	1.10000040E+1	0.00000000E+0	0.00000000E+0	3.97700000E-13	8.42000000E-14	0.00000000E+0	8.95506757E-5
9.80181000E+5	1.10999334E+1	0.00000000E+0	0.00000000E+0	3.85200000E-13	7.72000000E-14	0.00000000E+0	8.98076522E-5
9.86851000E+5	1.11999318E+1	0.00000000E+0	0.00000000E+0	4.10000000E-13	8.62000000E-14	0.00000000E+0	8.90431361E-5
9.93717000E+5	1.13000474E+1	0.00000000E+0	0.00000000E+0	4.74600000E-13	9.78000000E-14	1.00000000E+0	8.94513565E-5
1.00046400E+6	1.14000041E+1	0.00000000E+0	0.00000000E+0	6.32400000E-13	1.30700000E-13	0.00000000E+0	8.90071498E-5
1.00714500E+6	1.14999833E+1	0.00000000E+0	0.00000000E+0	9.69000000E-13	2.01100000E-13	0.00000000E+0	8.91575920E-5
1.01383700E+6	1.15999941E+1	0.00000000E+0	0.00000000E+0	1.38870000E-12	2.81000000E-13	1.00000000E+0	8.92562466E-5
1.02051800E+6	1.17000368E+1	0.00000000E+0	0.00000000E+0	1.67730000E-12	3.35300000E-13	1.00000000E+0	8.93373775E-5
1.02723900E+6	1.17999767E+1	0.00000000E+0	0.00000000E+0	1.88500000E-12	3.77700000E-13	1.00000000E+0	8.93770473E-5
1.03394200E+6	1.18999954E+1	0.00000000E+0	0.00000000E+0	2.17410000E-12	4.31000000E-13	0.00000000E+0	8.94770610E-5
1.04064400E+6	1.20000294E+1	0.00000000E+0	0.00000000E+0	2.67610000E-12	5.18000000E-13	4.00000000E+0	8.91193615E-5
1.04727400E+6	1.20999528E+1	0.00000000E+0	0.00000000E+0	3.47830000E-12	6.69900000E-13	1.00000000E+0	8.92053144E-5
1.05380200E+6	1.22000217E+1	0.00000000E+0	0.00000000E+0	4.57290000E-12	8.72900000E-13	2.00000000E+0	8.92905521E-5
1.06032800E+6	1.22999914E+1	0.00000000E+0	0.00000000E+0	5.69670000E-12	1.07680000E-12	5.00000000E+0	8.93529075E-5
1.06673400E+6	1.23999670E+1	0.00000000E+0	0.00000000E+0	6.41110000E-12	1.21700000E-12	1.30000000E+1	8.95415741E-5
1.07322500E+6	1.25000488E+1	0.00000000E+0	0.00000000E+0	6.54510000E-12	1.23780000E-12	4.00000000E+0	8.95427513E-5
1.07980900E+6	1.26000078E+1	0.00000000E+0	0.00000000E+0	6.32300000E-12	1.20140000E-12	8.00000000E+0	8.94680875E-5
1.08632800E+6	1.26999966E+1	0.00000000E+0	0.00000000E+0	6.06630000E-12	1.15450000E-12	8.00000000E+0	8.92457592E-5
1.09290300E+6	1.27999917E+1	0.00000000E+0	0.00000000E+0	5.98300000E-12	1.14080000E-12	1.30000000E+1	8.95065325E-5
1.09932600E+6	1.28999693E+1	0.00000000E+0	0.00000000E+0	6.18200000E-12	1.17790000E-12	9.00000000E+0	8.95885664E-5
1.10574000E+6	1.30000293E+1	0.00000000E+0	0.00000000E+0	6.69980000E-12	1.27940000E-12	8.00000000E+0	8.95217257E-5
1.11212300E+6	1.30999849E+1	0.00000000E+0	0.00000000E+0	7.60010000E-12	1.44720000E-12	9.00000000E+0	8.92971026E-5
1.11854400E+6	1.32000086E+1	0.00000000E+0	0.00000000E+0	8.82260000E-12	1.68480000E-12	1.10000000E+1	8.96597373E-5
1.12483100E+6	1.32999813E+1	0.00000000E+0	0.00000000E+0	1.02399000E-11	1.95010000E-12	1.70000000E+1	8.92099487E-5
1.13125800E+6	1.33999979E+1	0.00000000E+0	0.00000000E+0	1.15870000E-11	2.21420000E-12	2.30000000E+1	8.95331281E-5
1.13759000E+6	1.35000109E+1	0.00000000E+0	0.00000000E+0	1.25902000E-11	2.40470000E-12	2.20000000E+1	8.94607800E-5
1.14401200E+6	1.36000015E+1	0.00000000E+0	0.00000000E+0	1.31032000E-11	2.51080000E-12	2.20000000E+1	8.94339608E-5
1.15048500E+6	1.37000119E+1	0.00000000E+0	0.00000000E+0	1.32055000E-11	2.53360000E-12	3.10000000E+1	8.92289030E-5
1.15688800E+6	1.37999789E+1	0.00000000E+0	0.00000000E+0	1.30753000E-11	2.50940000E-12	3.10000000E+1	8.89688717E-5
1.16326500E+6	1.39000103E+1	0.00000000E+0	0.00000000E+0	1.29496000E-11	2.48600000E-12	3.80000000E+1	8.92997967E-5
1.16966300E+6	1.39999808E+1	0.00000000E+0	0.00000000E+0	1.29668000E-11	2.48210000E-12	4.00000000E+1	8.95761746E-5
1.17603500E+6	1.41000188E+1	0.00000000E+0	0.00000000E+0	1.32398000E-11	2.53620000E-12	3.00000000E+1	8.91033607E-5
1.18230700E+6	1.41999312E+1	0.00000000E+0	0.00000000E+0	1.38461000E-11	2.64120000E-12	3.80000000E+1	8.93453228E-5
1.18869000E+6	1.43000666E+1	0.00000000E+0	0.00000000E+0	1.48140000E-11	2.82250000E-12	4.20000000E+1	8.93096255E-5
1.19513500E+6	1.44000144E+1	0.00000000E+0	0.00000000E+0	1.60844000E-11	3.05550000E-12	4.60000000E+1	8.92562526E-5
1.20136500E+6	1.44999260E+1	0.00000000E+0	0.00000000E+0	1.75581000E-11	3.32780000E-12	6.60000000E+1	8.91751157E-5
1.20763800E+6	1.46000317E+1	0.00000000E+0	0.00000000E+0	1.90445000E-11	3.59800000E-12	5.10000000E+1	8.93716442E-5
1.21394300E+6	1.46999930E+1	0.00000000E+0	0.00000000E+0	2.03071000E-11	3.83190000E-12	8.00000000E+1	8.89883207E-5
1.22021900E+6	1.48000079E+1	0.00000000E+0	0.00000000E+0	2.11748000E-11	3.99090000E-12	8.00000000E+1	8.95099776E-5
1.22651300E+6	1.49000142E+1	0.00000000E+0	0.00000000E+0	2.16111000E-11	4.05880000E-12	7.40000000E+1	8.94457149E-5
1.23280400E+6	1.50000022E+1	0.00000000E+0	0.00000000E+0	2.16903000E-11	4.06500000E-12	7.90000000E+1	8.92341392E-5
1.23902700E+6	1.50999252E+1	0.00000000E+0	0.00000000E+0	2.15818000E-11	4.03780000E-12	7.80000000E+1	8.94809055E-5
1.24521500E+6	1.52000745E+1	0.00000000E+0	0.00000000E+0	2.14790000E-11	4.00410000E-12	8.00000000E+1	8.94297349E-5
1.25215400E+6	1.52999350E+1	0.00000000E+0	0.00000000E+0	2.15063000E-11	3.99810000E-12	8.70000000E+1	8.91828256E-5
1.25826100E+6	1.54000892E+1	0.00000000E+0	0.00000000E+0	2.18077000E-11	4.04440000E-12	8.90000000E+1	8.92647671E-5
1.26449500E+6	1.54999533E+1	0.00000000E+0	0.00000000E+0	2.23898000E-11	4.14310000E-12	9.10000000E+1	8.90055822E-5
1.27072100E+6	1.56000472E+1	0.00000000E+0	0.00000000E+0	2.31945000E-11	4.27740000E-12	1.01000000E+2	8.92118620E-5
1.27675700E+6	1.57000120E+1	0.00000000E+0	0.00000000E+0	2.40906000E-11	4.42820000E-12	1.02000000E+2	8.93951314E-5
1.28298000E+6	1.58000422E+1	0.00000000E+0	0.00000000E+0	2.48292000E-11	4.55990000E-12	1.16000000E+2	8.92403679E-5
1.28925500E+6	1.59000124E+1	0.00000000E+0	0.00000000E+0	2.51337000E-11	4.61010000E-12	1.04000000E+2	8.95869928E-5
1.29535400E+6	1.59999797E+1	0.00000000E+0	0.00000000E+0	2.46957000E-11	4.52240000E-12	1.08000000E+2	8.93606739E-5
1.30159400E+6	1.61000045E+1	0.00000000E+0	0.00000000E+0	2.35149000E-11	4.29980000E-12	9.90000000E+1	8.95186084E-5
1.30765200E+6	1.62000010E+1	0.00000000E+0	0.00000000E+0	2.16042000E-11	3.94140000E-12	9.80000000E+1	8.94890266E-5
1.31394000E+6	1.62999665E+1	0.00000000E+0	0.00000000E+0	1.87612000E-11	3.41560000E-12	7.90000000E+1	8.95673382E-5
1.32017500E+6	1.64000304E+1	0.00000000E+0	0.00000000E+0	1.38685000E-11	2.52660000E-12	6.40000000E+1	8.94884782E-5
1.32623000E+6	1.64999734E+1	0.00000000E+0	0.00000000E+0	6.45950000E-12	1.18560000E-12	2.90000000E+1	8.93965261E-5
1.33255200E+6	1.66000385E+1	0.00000000E+0	0.00000000E+0	2.27520000E-12	4.10100000E-13	1.20000000E+1	8.91027974E-5
1.33888300E+6	1.66999802E+1	0.00000000E+0	0.00000000E+0	1.21890000E-12	2.18300000E-13	4.00000000E+0	8.92151730E-5
1.34487500E+6	1.67999101E+1	0.00000000E+0	0.00000000E+0	9.70800000E-13	1.75000000E-13	6.00000000E+0	8.93599825E-5
1.35102600E+6	1.69001563E+1	0.00000000E+0	0.00000000E+0	9.07600000E-13	1.63600000E-13	4.00000000E+0	8.96622854E-5
1.35692900E+6	1.69999056E+1	0.00000000E+0	0.00000000E+0	8.80900000E-13	1.59600000E-13	1.00000000E+0	8.94379693E-5
1.36320700E+6	1.71001225E+1	0.00000000E+0	0.00000000E+0	8.75300000E-13	1.56900000E-13	5.00000000E+0	8.93271106E-5
1.36937300E+6	1.71999808E+1	0.00000000E+0	0.00000000E+0	8.61200000E-13	1.52200000E-13	2.00000000E+0	8.97336083E-5
1.37537500E+6	1.72999361E+1	0.00000000E+0	0.00000000E+0	8.35100000E-13	1.57600000E-13	1.00000000E+0	8.95509260E-5
1.38153200E+6	1.74000456E+1	0.00000000E+0	0.00000000E+0	7.37300000E-13	1.31600000E-13	5.00000000E+0	8.94932973E-5
1.38748300E+6	1.75000191E+1	0.00000000E+0	0.00000000E+0	6.30500000E-13	1.14200000E-13	2.00000000E+0	8.96462667E-5
1.39368300E+6	1.76001355E+1	0.00000000E+0	0.00000000E+0	5.94500000E-13	1.08200000E-13	1.00000000E+0	8.95217466E-5
1.39985700E+6	1.76999447E+1	0.00000000E+0	0.00000000E+0	5.96400000E-13	1.06100000E-13	2.00000000E+0	8.92318534E-5
1.40580200E+6	1.78000380E+1	0.00000000E+0	0.00000000E+0	6.15900000E-13	1.09500000E-13	1.00000000E+0	8.94053596E-5
1.41197500E+6	1.79000392E+1	0.00000000E+0	0.00000000E+0	6.27900000E-13	1.14900000E-13	0.00000000E+0	8.88528304E-5
1.41809400E+6	1.80000318E+1	0.00000000E+0	0.00000000E+0	6.44000000E-13	1.15300000E-13	1.00000000E+0	8.96963495E-5
