G:\BEAR_storage\User_Experiments\20220317_arneodo\file(1)0076.txt
Ring Energy (GeV): 2
Lifetime (hours): 15.2903
Scan beginning: 3/21/2022	3:04:19 PM
Ring current (mA): 308.76
Source position: x (mm): 0.006 x' (mrad): -0.001 y (mm): 0 y' (mrad): 0.002
Scan end: 3/21/2022	3:06:38 PM
Ring current (mA): 309.31
Source position: x (mm): 0.006 x' (mrad): 0.001 y (mm): 0.001 y' (mrad): 0.001

SCAN TYPE: Z_MANIPULATOR

FILE INFO: FILE INFO:

SCAN PARAMETERS
waiting time (ms): 1000
Number of scans: 1
Current scan number: 1
DARK OFF 
PREDARK OFF 

SCAN PARAMETERS
Initial Z manipulator (mm): -16.000000E+0
Delta Z manipulator (mm): 200.000000E-3
Final Z manipulator (mm): -8.000000E+0


BEAR MONOCHROMATOR CONFIGURATION: 
Current Grating Position:     -151492.90
Current Mirror Position: 2556.9
Current Grating: G1200
P2 phiz position:  0.0000
Mono axis position: 25.0000
Current Photon Energy (eV): 119.999
Current Deviation Angle: 155.000
Vertical Exit Slits (um): 100.000
Exit slit y axis position: 1.3625
Horizontal Exit Slits (um):  889.156
Exit slit z axis position: 1.9229
Mitutoyo position (mm): 

Dose on sample (mJ/cm^2): NaN

ENERGY CALIBRATION:
offset grating G1200: yes
Delta 0 order G1200:  -1100.0
offset grating G1800: not
Delta 0 order G1800:  0.0
offset grating GNIM: not
Delta 0 order GNIM:  0.0
ZERO ORDER POSITIONS:
Grating G1200: Mirror position:  4938.0
Grating position: -105355.0
Grating G1800: 
Mirror position:  4938.0
Grating position: -106345.0
Grating GNIM: 
Mirror position:  10000.0
Grating position: 227300.0

Initial filter: Full Beam

EXPERIMENTAL CHAMBER CONFIGURATION: 
PsiC (deg):   -0.000186
Phi Analyzer (degrees): 89.993255
Theta Manipulator (degrees): -44.000040
Theta Analyzer (degrees): -135.001468
PhiM (degrees): -0.003077
XM (mm): -0.999063
YM (mm): 9.959088
ZM (mm): (Warning: for kinetic energy scans, 
this parameter is given in the scan settings) 
-11.801400
TiltM (°): 0.000138

ELECTRON ANALYZER CONFIGURATION: 
Current Kinetik energy (eV): 35.0
Mode: DE = COST
Pass Energy (eV):  100.000
CEM: ON
Bias Front-Back CEM (V): 3499.698
Bias Back-Collector CEM (V): 100.874
Bias Retard-Front CEM: 100.104COIL VALUES
Ix (amps):2.820
Iy (amps): 6.789
Iz (amps): 37.403

POLARIZATION SELECTOR CONFIGURATION:
Psi1 (rad): -0.001665535
Psi2 (rad): 0.001417093
Z min position (mm): 46.599650
DZ position (mm): 18.599100
Zmin 0 (mm): 65.700000
DZ0 (mm): 54.000000

BEAM SELECTOR CONFIGURATION:
Zmin position (mm): NaN
DZ position (mm): NaN
Y+ position (mm): NaN
Y- position (mm): NaN

CHANNEL ELECTRON MULTIPLIER CONFIGURATION:
CEM configured: OFF
Bias CEM: 0.000000

FLUORESCENCE DETECTOR CONFIGURATION:
Not configured

LUMINESCENCE MONOCHROMATOR CONFIGURATION:
Optical fiber position (mm): 0.000000
Optical fiber Switch inside: ON
Optical fiber Switch outside: ON
Monochromator wavelength (A): 0.000000
Limit Switches: ON

I0 MONITOR PARAMETERS:
I0 detector position(mm): NaN
Lower switch: OFF
Upper switch: OFF
Valve status:unread

PRESSURE PARAMETERS:
Monitor chamber pressure (mbar): 9.698e-10
Experimental chamber pressure -ION GAUGE-(mbar): 0.000000E+0

XMCD PARAMETERS:
Xmcd OFF
Xmcd Direction -
Xmcd current (A): 0.000000

Gated scan off

Instrument 1: AMMETER KEITHLEY 6517A B
Measure type: Current
range type: set range value
range value (ampere):  200 pA
Integration time:  set NPLC value
NPLC value: 10.000
Digital filter count: 2
SAMPLE BIAS (V): -30.000
Vsource: ON
Output Voltage value: 30.000
Vsource range: 1000 V

Range Keithley B changed to 20 nA

Range Keithley B changed to 200 pA

Range Keithley B changed to 20 nA

Range Keithley B changed to 200 pA

Keithley B Bias (V) changed to: 0.000000

Instrument 2: AMMETER KEITHLEY 6517A A
Measure type: Current
range type: set range value
range value (ampere):  200 pA
Integration time:  set NPLC value
NPLC value: 10.000
Digital filter count: 2
Vsource: OFF
Output Voltage value: -0.000
Vsource range: 100 V
Trigger source: bus

Range Keithley A changed to 20 nA

Range Keithley A changed to 200 nA

Range Keithley A changed to 200 pA

Range Keithley A changed to 20 nA

Range Keithley A changed to 200 pA

Range Keithley A changed to 20 nA

Instrument 3: COUNTER ORTEC 996Integration time (sec): 1.000


Range Keithley C changed to 200 nA


Range Keithley C changed to 2 uA


________________________________________________________________________________

RelativeTime (msec)	Number	Time (msec)	Z  manipulator (mm)	INSTR_1_Sample grounded_(ampere ) 	INSTR_2_Monitor IM_(ampere)  	INSTR_3_Ortec 996 counts_(counts)	I_BPM_sum (Amps)	
________________________________________________________________________________

3.66100000E+3	0.00000000E+0	-6.81078770E+7	-1.60013750E+1	1.30887200E-10	8.87672000E-9	3.70000000E+1	8.93120306E-5
1.55830000E+4	1.00000000E+0	-6.19039970E+7	-1.58013750E+1	1.32448700E-10	8.87278000E-9	1.04000000E+2	8.90447723E-5
2.66350000E+4	2.00000000E+0	-5.57009870E+7	-1.56013750E+1	1.32347300E-10	8.86903000E-9	8.90000000E+1	8.91445236E-5
3.76940000E+4	3.00000000E+0	-4.94979700E+7	-1.54013750E+1	1.31022300E-10	8.86530000E-9	5.80000000E+1	8.91701715E-5
4.88280000E+4	4.00000000E+0	-4.32948780E+7	-1.52013750E+1	1.32414100E-10	8.86159000E-9	1.24000000E+2	8.91100900E-5
5.98610000E+4	5.00000000E+0	-3.70918870E+7	-1.50013750E+1	1.32738300E-10	8.85805000E-9	1.26000000E+2	8.92036872E-5
7.09030000E+4	6.00000000E+0	-3.08888870E+7	-1.48013750E+1	1.30935500E-10	8.85467000E-9	6.00000000E+1	8.88384031E-5
8.20100000E+4	7.00000000E+0	-2.46858220E+7	-1.46013750E+1	1.31280400E-10	8.85103000E-9	7.90000000E+1	8.90284913E-5
9.30720000E+4	8.00000000E+0	-1.84828020E+7	-1.44013750E+1	1.30672200E-10	8.85322000E-9	4.90000000E+1	8.91061770E-5
1.04145000E+5	9.00000000E+0	-1.22797710E+7	-1.42013750E+1	1.29889800E-10	8.88203000E-9	2.20000000E+1	8.94232439E-5
1.15169000E+5	1.00000000E+1	-6.07678900E+6	-1.40013750E+1	1.29911900E-10	8.87851000E-9	2.30000000E+1	8.93964636E-5
1.26296000E+5	1.10000000E+1	1.26296000E+5	-1.38013750E+1	1.29745900E-10	8.87514000E-9	1.70000000E+1	8.92090874E-5
2.14748365E+9	1.20000000E+1	     NaN	     NaN	     NaN	     NaN	     NaN	8.92897832E-5
