G:\BEAR_storage\User_Experiments\20220317_arneodo\file(1)_Region 6__0073.txt
Ring Energy (GeV): 2
Lifetime (hours): 15.2392
Scan beginning: 3/21/2022	1:51:28 PM
Ring current (mA): 308.78
Source position: x (mm): 0.006 x' (mrad): 0 y (mm): 0.002 y' (mrad): 0.002
Scan end: 3/21/2022	2:32:12 PM
Ring current (mA): 309.22
Source position: x (mm): 0.007 x' (mrad): -0.001 y (mm): 0.001 y' (mrad): 0.002

SCAN TYPE: PHOTON ENERGY VS VAR_1 VS VAR_2

FILE INFO: FILE INFO:

SCAN PARAMETERS
waiting time (ms): 0
Number of scans: 1
Current scan number: 1
DARK OFF 
PREDARK OFF 

SCAN PARAMETERS
Regions configuration: 
number of regions: 6
Mirror grating scan: on
Timed acquisition: off
Region 1:
Initial energy (eV): 40.000000
Final energy (eV): 72.000000
Delta energy (eV): 1.000000
Deviation angle choice: Higher order rejection
Deviation angle (°): NaN
Al filter
G1200 channel
range keithley B 20 nA
range keithley C 200 nA
range keithley A 20 nA
Var_1: PsiC 0.000000
Var_2: PhiM0.000000
Bias CEM (V): 0.000000
Bias Keithley B (V): -30.000000
Name region: 
Region 2:
Initial energy (eV): 70.000000
Final energy (eV): 102.000000
Delta energy (eV): 1.000000
Deviation angle choice: Higher order rejection
Deviation angle (°): NaN
Si filter
G1200 channel
range keithley B 20 nA
range keithley C 200 nA
range keithley A 20 nA
Var_1: PsiC 0.000000
Var_2: PhiM0.000000
Bias CEM (V): 0.000000
Bias Keithley B (V): -30.000000
Name region: 
Region 3:
Initial energy (eV): 98.000000
Final energy (eV): 260.000000
Delta energy (eV): 1.000000
Deviation angle choice: Higher order rejection
Deviation angle (°): NaN
Full Beam
G1200 channel
range keithley B 20 nA
range keithley C 200 nA
range keithley A 200 nA
Var_1: PsiC 0.000000
Var_2: PhiM0.000000
Bias CEM (V): 0.000000
Bias Keithley B (V): -30.000000
Name region: 
Region 4:
Initial energy (eV): 255.000000
Final energy (eV): 320.000000
Delta energy (eV): 1.000000
Deviation angle choice: Higher order rejection
Deviation angle (°): NaN
filter Ag 0.6 um
G1200 channel
range keithley B 200 pA
range keithley C 200 nA
range keithley A 200 pA
Var_1: PsiC 0.000000
Var_2: PhiM0.000000
Bias CEM (V): 0.000000
Bias Keithley B (V): -30.000000
Name region: 
Region 5:
Initial energy (eV): 315.000000
Final energy (eV): 1200.000000
Delta energy (eV): 5.000000
Deviation angle choice: Higher order rejection
Deviation angle (°): NaN
Full Beam
G1200 channel
range keithley B 20 nA
range keithley C 200 nA
range keithley A 20 nA
Var_1: PsiC 0.000000
Var_2: PhiM0.000000
Bias CEM (V): 0.000000
Bias Keithley B (V): -30.000000
Name region: 
Region 6:
Initial energy (eV): 1190.000000
Final energy (eV): 1500.000000
Delta energy (eV): 5.000000
Deviation angle choice: Higher order rejection
Deviation angle (°): NaN
filter Ag 0.6 um
G1200 channel
range keithley B 200 pA
range keithley C 200 nA
range keithley A 200 pA
Var_1: PsiC 0.000000
Var_2: PhiM0.000000
Bias CEM (V): 0.000000
Bias Keithley B (V): -30.000000
Name region: 

BEAR MONOCHROMATOR CONFIGURATION: 
Current Grating Position:     -236071.60
Current Mirror Position: 2557.0
Current Grating: G1200
P2 phiz position:  0.0000
Mono axis position: 25.0000
Current Photon Energy (eV): 40.000
Current Deviation Angle: 155.000
Vertical Exit Slits (um): 100.000
Exit slit y axis position: 1.3625
Horizontal Exit Slits (um):  889.156
Exit slit z axis position: 1.9229
Mitutoyo position (mm): 

Dose on sample (mJ/cm^2): NaN

ENERGY CALIBRATION:
offset grating G1200: not
Delta 0 order G1200:  0.0
offset grating G1800: not
Delta 0 order G1800:  0.0
offset grating GNIM: not
Delta 0 order GNIM:  0.0
ZERO ORDER POSITIONS:
Grating G1200: Mirror position:  4938.0
Grating position: -105355.0
Grating G1800: 
Mirror position:  4938.0
Grating position: -106345.0
Grating GNIM: 
Mirror position:  10000.0
Grating position: 227300.0

Initial filter: Full Beam

EXPERIMENTAL CHAMBER CONFIGURATION: 
PsiC (deg):   -0.000186
Phi Analyzer (degrees): 89.992308
Theta Manipulator (degrees): -44.000040
Theta Analyzer (degrees): -135.001468
PhiM (degrees): -0.003077
XM (mm): -4.499238
YM (mm): 25.962825
ZM (mm): (Warning: for kinetic energy scans, 
this parameter is given in the scan settings) 
-14.001438
TiltM (°): 0.000138

ELECTRON ANALYZER CONFIGURATION: 
Current Kinetik energy (eV): 35.0
Mode: DE = COST
Pass Energy (eV):  100.000
CEM: ON
Bias Front-Back CEM (V): 3499.698
Bias Back-Collector CEM (V): 100.874
Bias Retard-Front CEM: 100.104COIL VALUES
Ix (amps):2.820
Iy (amps): 6.789
Iz (amps): 37.403

POLARIZATION SELECTOR CONFIGURATION:
Psi1 (rad): -0.001665535
Psi2 (rad): 0.001417093
Z min position (mm): 46.599650
DZ position (mm): 18.599100
Zmin 0 (mm): 65.700000
DZ0 (mm): 54.000000

BEAM SELECTOR CONFIGURATION:
Zmin position (mm): NaN
DZ position (mm): NaN
Y+ position (mm): NaN
Y- position (mm): NaN

CHANNEL ELECTRON MULTIPLIER CONFIGURATION:
CEM configured: OFF
Bias CEM: 0.000000

FLUORESCENCE DETECTOR CONFIGURATION:
Not configured

LUMINESCENCE MONOCHROMATOR CONFIGURATION:
Optical fiber position (mm): 0.000000
Optical fiber Switch inside: ON
Optical fiber Switch outside: ON
Monochromator wavelength (A): 0.000000
Limit Switches: ON

I0 MONITOR PARAMETERS:
I0 detector position(mm): NaN
Lower switch: OFF
Upper switch: OFF
Valve status:unread

PRESSURE PARAMETERS:
Monitor chamber pressure (mbar): 9.255e-10
Experimental chamber pressure -ION GAUGE-(mbar): 0.000000E+0

XMCD PARAMETERS:
Xmcd OFF
Xmcd Direction -
Xmcd current (A): 0.000000

Gated scan off

Instrument 1: AMMETER KEITHLEY 6517A B
Measure type: Current
range type: set range value
range value (ampere):  200 pA
Integration time:  set NPLC value
NPLC value: 10.000
Digital filter count: 2
SAMPLE BIAS (V): -30.000
Vsource: ON
Output Voltage value: 30.000
Vsource range: 1000 V

Range Keithley B changed to 20 nA

Range Keithley B changed to 200 pA

Range Keithley B changed to 20 nA

Range Keithley B changed to 200 pA

Instrument 2: AMMETER KEITHLEY 6517A A
Measure type: Current
range type: set range value
range value (ampere):  200 pA
Integration time:  set NPLC value
NPLC value: 10.000
Digital filter count: 2
Vsource: OFF
Output Voltage value: -0.000
Vsource range: 100 V
Trigger source: bus

Range Keithley A changed to 20 nA

Range Keithley A changed to 200 nA

Range Keithley A changed to 200 pA

Range Keithley A changed to 20 nA

Range Keithley A changed to 200 pA

Instrument 3: COUNTER ORTEC 996Integration time (sec): 1.000


Range Keithley C changed to 200 nA


________________________________________________________________________________

RelativeTime (msec)	Photon Energy	Var_1	Var_2	INSTR_1_Sample with Bias _(ampere ) 	INSTR_2_Monitor IM_(ampere)  	INSTR_3_Ortec 996 counts_(counts)	I_BPM_sum (Amps)	
________________________________________________________________________________

2.14711000E+6	1.18999284E+3	0.00000000E+0	0.00000000E+0	4.42980000E-12	1.68978700E-10	6.00000000E+0	8.88911860E-5
2.15330800E+6	1.19501169E+3	0.00000000E+0	0.00000000E+0	4.28730000E-12	1.64120600E-10	1.00000000E+1	8.91315626E-5
2.15870700E+6	1.19998796E+3	0.00000000E+0	0.00000000E+0	3.99180000E-12	1.57449500E-10	9.00000000E+0	8.90402632E-5
2.16355600E+6	1.20502146E+3	0.00000000E+0	0.00000000E+0	3.97120000E-12	1.56335900E-10	6.00000000E+0	8.88437645E-5
2.16835000E+6	1.20999541E+3	0.00000000E+0	0.00000000E+0	3.86650000E-12	1.55150000E-10	8.00000000E+0	8.90704351E-5
2.17312400E+6	1.21499333E+3	0.00000000E+0	0.00000000E+0	3.80010000E-12	1.53791200E-10	8.00000000E+0	8.88953464E-5
2.17789500E+6	1.22000123E+3	0.00000000E+0	0.00000000E+0	3.62480000E-12	1.52414800E-10	8.00000000E+0	8.92892348E-5
2.18269900E+6	1.22499665E+3	0.00000000E+0	0.00000000E+0	3.64460000E-12	1.50988200E-10	7.00000000E+0	8.93265592E-5
2.18749800E+6	1.23000107E+3	0.00000000E+0	0.00000000E+0	3.57200000E-12	1.49035900E-10	7.00000000E+0	8.91908007E-5
2.19230100E+6	1.23500632E+3	0.00000000E+0	0.00000000E+0	3.40470000E-12	1.46832200E-10	5.00000000E+0	8.93992441E-5
2.19706000E+6	1.23998075E+3	0.00000000E+0	0.00000000E+0	3.44810000E-12	1.44465100E-10	6.00000000E+0	8.91266661E-5
2.20184500E+6	1.24501366E+3	0.00000000E+0	0.00000000E+0	3.34270000E-12	1.41889400E-10	9.00000000E+0	8.92655360E-5
2.20660800E+6	1.24999478E+3	0.00000000E+0	0.00000000E+0	3.22250000E-12	1.39127000E-10	9.00000000E+0	8.91679483E-5
2.21142500E+6	1.25500455E+3	0.00000000E+0	0.00000000E+0	3.14820000E-12	1.36176500E-10	8.00000000E+0	8.92414021E-5
2.21621800E+6	1.25999048E+3	0.00000000E+0	0.00000000E+0	3.01290000E-12	1.33074100E-10	9.00000000E+0	8.94483464E-5
2.22099900E+6	1.26499107E+3	0.00000000E+0	0.00000000E+0	2.93400000E-12	1.29408400E-10	5.00000000E+0	8.92778443E-5
2.22579200E+6	1.27000242E+3	0.00000000E+0	0.00000000E+0	2.79170000E-12	1.25946800E-10	8.00000000E+0	8.90031205E-5
2.23057100E+6	1.27499331E+3	0.00000000E+0	0.00000000E+0	2.76420000E-12	1.22840500E-10	3.00000000E+0	8.90940653E-5
2.23535600E+6	1.28001720E+3	0.00000000E+0	0.00000000E+0	2.57880000E-12	1.19620200E-10	4.00000000E+0	8.93847125E-5
2.24018300E+6	1.28499613E+3	0.00000000E+0	0.00000000E+0	2.52050000E-12	1.16298800E-10	2.00000000E+0	8.92327951E-5
2.24494400E+6	1.29000223E+3	0.00000000E+0	0.00000000E+0	2.45080000E-12	1.12892600E-10	7.00000000E+0	8.93878745E-5
2.24972600E+6	1.29499056E+3	0.00000000E+0	0.00000000E+0	2.30100000E-12	1.09453400E-10	4.00000000E+0	8.92317103E-5
2.25451200E+6	1.29999617E+3	0.00000000E+0	0.00000000E+0	2.26000000E-12	1.05969800E-10	4.00000000E+0	8.92037200E-5
2.25933000E+6	1.30499199E+3	0.00000000E+0	0.00000000E+0	2.18530000E-12	1.02502600E-10	1.00000000E+0	8.93134611E-5
2.26414000E+6	1.31000072E+3	0.00000000E+0	0.00000000E+0	2.02860000E-12	9.90235000E-11	4.00000000E+0	8.92225998E-5
2.26893600E+6	1.31500871E+3	0.00000000E+0	0.00000000E+0	1.95940000E-12	9.55606000E-11	5.00000000E+0	8.93029647E-5
2.27361100E+6	1.31998186E+3	0.00000000E+0	0.00000000E+0	1.88550000E-12	9.21221000E-11	3.00000000E+0	8.93728154E-5
2.27840800E+6	1.32501415E+3	0.00000000E+0	0.00000000E+0	1.82090000E-12	8.86268000E-11	1.00000000E+0	8.91708331E-5
2.28385000E+6	1.32997030E+3	0.00000000E+0	0.00000000E+0	1.68970000E-12	8.52269000E-11	1.00000000E+0	8.93423217E-5
2.28849700E+6	1.33500408E+3	0.00000000E+0	0.00000000E+0	1.63200000E-12	8.17884000E-11	1.00000000E+0	8.94870298E-5
2.29326800E+6	1.34001990E+3	0.00000000E+0	0.00000000E+0	1.56120000E-12	7.83677000E-11	6.00000000E+0	8.90517490E-5
2.29804000E+6	1.34499405E+3	0.00000000E+0	0.00000000E+0	1.49080000E-12	7.50443000E-11	2.00000000E+0	8.90230970E-5
2.30281700E+6	1.35000111E+3	0.00000000E+0	0.00000000E+0	1.39870000E-12	7.17336000E-11	3.00000000E+0	8.89904188E-5
2.30758200E+6	1.35499898E+3	0.00000000E+0	0.00000000E+0	1.34450000E-12	6.85037000E-11	1.00000000E+0	8.92108338E-5
2.31224900E+6	1.35997530E+3	0.00000000E+0	0.00000000E+0	1.24970000E-12	6.53580000E-11	0.00000000E+0	8.90355336E-5
2.31691000E+6	1.36500013E+3	0.00000000E+0	0.00000000E+0	1.22500000E-12	6.21913000E-11	1.00000000E+0	8.92825352E-5
2.32171000E+6	1.37002053E+3	0.00000000E+0	0.00000000E+0	1.16510000E-12	5.90889000E-11	0.00000000E+0	8.92279851E-5
2.32636600E+6	1.37498801E+3	0.00000000E+0	0.00000000E+0	1.04950000E-12	5.60967000E-11	0.00000000E+0	8.91109573E-5
2.33103000E+6	1.37998116E+3	0.00000000E+0	0.00000000E+0	1.02790000E-12	5.31500000E-11	1.00000000E+0	8.94181984E-5
2.33589500E+6	1.38502088E+3	0.00000000E+0	0.00000000E+0	9.67400000E-13	5.02387000E-11	1.00000000E+0	8.89727132E-5
2.34060200E+6	1.38999568E+3	0.00000000E+0	0.00000000E+0	9.35900000E-13	4.74487000E-11	2.00000000E+0	8.89922636E-5
2.34540300E+6	1.39501638E+3	0.00000000E+0	0.00000000E+0	8.83300000E-13	4.47133000E-11	1.00000000E+0	8.92193662E-5
2.35005500E+6	1.39995590E+3	0.00000000E+0	0.00000000E+0	8.39700000E-13	4.21009000E-11	1.00000000E+0	8.89800833E-5
2.35481500E+6	1.40503024E+3	0.00000000E+0	0.00000000E+0	7.79700000E-13	3.94961000E-11	1.00000000E+0	8.92167406E-5
2.35945400E+6	1.40997157E+3	0.00000000E+0	0.00000000E+0	7.79400000E-13	3.70657000E-11	1.00000000E+0	8.90535580E-5
2.36413300E+6	1.41499353E+3	0.00000000E+0	0.00000000E+0	6.88200000E-13	3.46797000E-11	1.00000000E+0	8.90286939E-5
2.36883100E+6	1.41998918E+3	0.00000000E+0	0.00000000E+0	7.04200000E-13	3.23978000E-11	3.00000000E+0	8.90790688E-5
2.37349300E+6	1.42501370E+3	0.00000000E+0	0.00000000E+0	6.40300000E-13	3.02033000E-11	1.00000000E+0	8.91658830E-5
2.37821000E+6	1.42999445E+3	0.00000000E+0	0.00000000E+0	6.06100000E-13	2.81392000E-11	0.00000000E+0	8.89294701E-5
2.38287100E+6	1.43499705E+3	0.00000000E+0	0.00000000E+0	5.98400000E-13	2.61346000E-11	1.00000000E+0	8.90451150E-5
2.38756900E+6	1.44001014E+3	0.00000000E+0	0.00000000E+0	5.82300000E-13	2.42460000E-11	0.00000000E+0	8.90880810E-5
2.39223400E+6	1.44498540E+3	0.00000000E+0	0.00000000E+0	5.20000000E-13	2.24636000E-11	1.00000000E+0	8.89214502E-5
2.39691100E+6	1.44998196E+3	0.00000000E+0	0.00000000E+0	5.21100000E-13	2.07714000E-11	0.00000000E+0	8.91815679E-5
2.40158200E+6	1.45500629E+3	0.00000000E+0	0.00000000E+0	4.29600000E-13	1.91711000E-11	0.00000000E+0	8.92283427E-5
2.40625400E+6	1.45997785E+3	0.00000000E+0	0.00000000E+0	4.55600000E-13	1.77195000E-11	0.00000000E+0	8.92644035E-5
2.41092100E+6	1.46501047E+3	0.00000000E+0	0.00000000E+0	4.79100000E-13	1.62937000E-11	0.00000000E+0	8.94431489E-5
2.41559900E+6	1.47001650E+3	0.00000000E+0	0.00000000E+0	4.04100000E-13	1.49607000E-11	1.00000000E+0	8.95215856E-5
2.42026900E+6	1.47498746E+3	0.00000000E+0	0.00000000E+0	4.09100000E-13	1.37278000E-11	1.00000000E+0	8.94322144E-5
2.42497700E+6	1.48002570E+3	0.00000000E+0	0.00000000E+0	3.92000000E-13	1.25434000E-11	0.00000000E+0	8.94429582E-5
2.42970300E+6	1.48498394E+3	0.00000000E+0	0.00000000E+0	3.71200000E-13	1.14128000E-11	0.00000000E+0	8.91414719E-5
2.43439700E+6	1.48999928E+3	0.00000000E+0	0.00000000E+0	3.60300000E-13	1.04048000E-11	1.00000000E+0	8.92079340E-5
2.43904100E+6	1.49501971E+3	0.00000000E+0	0.00000000E+0	3.96700000E-13	9.47830000E-12	1.00000000E+0	8.93915760E-5
2.44367200E+6	1.49998838E+3	0.00000000E+0	0.00000000E+0	3.84800000E-13	8.62330000E-12	2.00000000E+0	8.92713474E-5
