G:\BEAR_storage\User_Experiments\20220317_arneodo\file(1)_Region 5__0085.txt
Ring Energy (GeV): 2
Lifetime (hours): 15.7742
Scan beginning: 3/22/2022	2:55:31 AM
Ring current (mA): 309.17
Source position: x (mm): 0.008 x' (mrad): -0.001 y (mm): -0.001 y' (mrad): 0.002
Scan end: 3/22/2022	3:29:03 AM
Ring current (mA): 308.75
Source position: x (mm): 0.007 x' (mrad): 0 y (mm): 0.001 y' (mrad): 0.002

SCAN TYPE: PHOTON ENERGY VS VAR_1 VS VAR_2

FILE INFO: FILE INFO:

SCAN PARAMETERS
waiting time (ms): 1000
Number of scans: 1
Current scan number: 1
DARK OFF 
PREDARK OFF 

SCAN PARAMETERS
Regions configuration: 
number of regions: 7
Mirror grating scan: on
Timed acquisition: off
Region 1:
Initial energy (eV): 3.000000
Final energy (eV): 4.500000
Delta energy (eV): 0.100000
Deviation angle choice: Degrees: 
Deviation angle (°): NaN
B270 window
GNIM channel
range keithley B 200 pA
range keithley C 200 pA
range keithley A 200 pA
Var_1: PsiC 0.000000
Var_2: PhiM0.000000
Bias CEM (V): 0.000000
Bias Keithley B (V): -30.000000
Name region: 
Region 2:
Initial energy (eV): 4.000000
Final energy (eV): 8.000000
Delta energy (eV): 0.100000
Deviation angle choice: Degrees: 
Deviation angle (°): NaN
SiO2 window
GNIM channel
range keithley B 200 pA
range keithley C 200 pA
range keithley A 200 pA
Var_1: PsiC 0.000000
Var_2: PhiM0.000000
Bias CEM (V): 0.000000
Bias Keithley B (V): -30.000000
Name region: 
Region 3:
Initial energy (eV): 7.000000
Final energy (eV): 12.000000
Delta energy (eV): 0.100000
Deviation angle choice: Degrees: 
Deviation angle (°): NaN
filter LiF window
GNIM channel
range keithley B 200 pA
range keithley C 200 pA
range keithley A 200 pA
Var_1: PsiC 0.000000
Var_2: PhiM0.000000
Bias CEM (V): 0.000000
Bias Keithley B (V): -30.000000
Name region: 
Region 4:
Initial energy (eV): 11.000000
Final energy (eV): 18.000000
Delta energy (eV): 0.100000
Deviation angle choice: Degrees: 
Deviation angle (°): NaN
In filter
GNIM channel
range keithley B 200 pA
range keithley C 200 pA
range keithley A 200 pA
Var_1: PsiC 0.000000
Var_2: PhiM0.000000
Bias CEM (V): 0.000000
Bias Keithley B (V): -30.000000
Name region: 
Region 5:
Initial energy (eV): 15.000000
Final energy (eV): 25.000000
Delta energy (eV): 0.100000
Deviation angle choice: Degrees: 
Deviation angle (°): NaN
Sn filter
GNIM channel
range keithley B 200 pA
range keithley C 200 pA
range keithley A 200 pA
Var_1: PsiC 0.000000
Var_2: PhiM0.000000
Bias CEM (V): 0.000000
Bias Keithley B (V): -30.000000
Name region: 
Region 6:
Initial energy (eV): 23.000000
Final energy (eV): 45.000000
Delta energy (eV): 0.100000
Deviation angle choice: Degrees: 
Deviation angle (°): NaN
Full Beam
GNIM channel
range keithley B 20 nA
range keithley C 200 pA
range keithley A 20 nA
Var_1: PsiC 0.000000
Var_2: PhiM0.000000
Bias CEM (V): 0.000000
Bias Keithley B (V): -30.000000
Name region: 
Region 7:
Initial energy (eV): 23.000000
Final energy (eV): 45.000000
Delta energy (eV): 0.100000
Deviation angle choice: Degrees: 
Deviation angle (°): NaN
Al filter
GNIM channel
range keithley B 20 nA
range keithley C 200 pA
range keithley A 20 nA
Var_1: PsiC 0.000000
Var_2: PhiM0.000000
Bias CEM (V): 0.000000
Bias Keithley B (V): -30.000000
Name region: 

BEAR MONOCHROMATOR CONFIGURATION: 
Current Grating Position:     200056.80
Current Mirror Position: 10000.0
Current Grating: GNIM
P2 phiz position:  -0.0195
Mono axis position: 73.5000
Current Photon Energy (eV): 45.000
Current Deviation Angle: 29.905
Vertical Exit Slits (um): 100.000
Exit slit y axis position: 1.3625
Horizontal Exit Slits (um):  889.156
Exit slit z axis position: 1.9229
Mitutoyo position (mm): 

Dose on sample (mJ/cm^2): NaN

ENERGY CALIBRATION:
offset grating G1200: yes
Delta 0 order G1200:  -1100.0
offset grating G1800: not
Delta 0 order G1800:  0.0
offset grating GNIM: not
Delta 0 order GNIM:  0.0
ZERO ORDER POSITIONS:
Grating G1200: Mirror position:  4938.0
Grating position: -105355.0
Grating G1800: 
Mirror position:  4938.0
Grating position: -106345.0
Grating GNIM: 
Mirror position:  10000.0
Grating position: 227300.0

Initial filter: Al filter

EXPERIMENTAL CHAMBER CONFIGURATION: 
PsiC (deg):   -0.000186
Phi Analyzer (degrees): 89.993255
Theta Manipulator (degrees): -44.000040
Theta Analyzer (degrees): -135.001468
PhiM (degrees): -0.003077
XM (mm): 0.000913
YM (mm): 7.907125
ZM (mm): (Warning: for kinetic energy scans, 
this parameter is given in the scan settings) 
-10.201325
TiltM (°): 0.000138

ELECTRON ANALYZER CONFIGURATION: 
Current Kinetik energy (eV): 35.0
Mode: DE = COST
Pass Energy (eV):  100.000
CEM: ON
Bias Front-Back CEM (V): 3499.698
Bias Back-Collector CEM (V): 100.874
Bias Retard-Front CEM: 100.104COIL VALUES
Ix (amps):2.820
Iy (amps): 6.789
Iz (amps): 37.403

POLARIZATION SELECTOR CONFIGURATION:
Psi1 (rad): -0.001665535
Psi2 (rad): 0.001417093
Z min position (mm): 46.599650
DZ position (mm): 18.599100
Zmin 0 (mm): 65.700000
DZ0 (mm): 54.000000

BEAM SELECTOR CONFIGURATION:
Zmin position (mm): NaN
DZ position (mm): NaN
Y+ position (mm): NaN
Y- position (mm): NaN

CHANNEL ELECTRON MULTIPLIER CONFIGURATION:
CEM configured: OFF
Bias CEM: 0.000000

FLUORESCENCE DETECTOR CONFIGURATION:
Not configured

LUMINESCENCE MONOCHROMATOR CONFIGURATION:
Optical fiber position (mm): 0.000000
Optical fiber Switch inside: ON
Optical fiber Switch outside: ON
Monochromator wavelength (A): 0.000000
Limit Switches: ON

I0 MONITOR PARAMETERS:
I0 detector position(mm): NaN
Lower switch: OFF
Upper switch: OFF
Valve status:unread

PRESSURE PARAMETERS:
Monitor chamber pressure (mbar): 9.057e-10
Experimental chamber pressure -ION GAUGE-(mbar): 0.000000E+0

XMCD PARAMETERS:
Xmcd OFF
Xmcd Direction -
Xmcd current (A): 0.000000

Gated scan off

Instrument 1: AMMETER KEITHLEY 6517A B
Measure type: Current
range type: set range value
range value (ampere):  200 pA
Integration time:  set NPLC value
NPLC value: 10.000
Digital filter count: 2
SAMPLE BIAS (V): -30.000
Vsource: ON
Output Voltage value: 30.000
Vsource range: 1000 V

Range Keithley B changed to 20 nA

Range Keithley B changed to 200 pA

Range Keithley B changed to 20 nA

Range Keithley B changed to 200 pA

Keithley B Bias (V) changed to: 0.000000

Range Keithley B changed to 20 nA

Keithley B Bias (V) changed to: -30.000000

Range Keithley B changed to 200 pA

Range Keithley B changed to 20 nA

Range Keithley B changed to 200 pA

Range Keithley B changed to 20 nA

Range Keithley B changed to 200 pA

Range Keithley B changed to 20 nA

Range Keithley B changed to 200 pA

Keithley B Bias (V) changed to: 0.000000

Keithley B Bias (V) changed to: -30.000000

Range Keithley B changed to 20 nA

Range Keithley B changed to 200 pA

Range Keithley B changed to 20 nA

Range Keithley B changed to 200 pA

Range Keithley B changed to 20 nA

Range Keithley B changed to 200 pA

Range Keithley B changed to 20 nA

Range Keithley B changed to 200 pA

Range Keithley B changed to 20 nA

Instrument 2: AMMETER KEITHLEY 6517A A
Measure type: Current
range type: set range value
range value (ampere):  200 pA
Integration time:  set NPLC value
NPLC value: 10.000
Digital filter count: 2
Vsource: OFF
Output Voltage value: -0.000
Vsource range: 100 V
Trigger source: bus

Range Keithley A changed to 20 nA

Range Keithley A changed to 200 nA

Range Keithley A changed to 200 pA

Range Keithley A changed to 20 nA

Range Keithley A changed to 200 pA

Range Keithley A changed to 20 nA

Range Keithley A changed to 200 nA

Range Keithley A changed to 200 pA

Range Keithley A changed to 20 nA

Range Keithley A changed to 200 pA

Range Keithley A changed to 20 nA

Range Keithley A changed to 200 nA

Range Keithley A changed to 200 pA

Range Keithley A changed to 20 nA

Range Keithley A changed to 200 pA

Range Keithley A changed to 20 nA

Range Keithley A changed to 200 pA

Range Keithley A changed to 20 nA

Range Keithley A changed to 200 pA

Range Keithley A changed to 20 nA

Range Keithley A changed to 200 pA

Range Keithley A changed to 20 nA

Range Keithley A changed to 200 pA

Range Keithley A changed to 20 nA

Range Keithley A changed to 200 pA

Range Keithley A changed to 20 nA

Instrument 3: COUNTER ORTEC 996Integration time (sec): 1.000


Range Keithley C changed to 200 nA


Range Keithley C changed to 2 uA


Range Keithley C changed to 200 nA


Range Keithley C changed to 2 uA


Range Keithley C changed to 200 pA


________________________________________________________________________________

RelativeTime (msec)	Photon Energy	Var_1	Var_2	INSTR_1_Sample with Bias _(ampere ) 	INSTR_2_Monitor IM_(ampere)  	INSTR_3_Ortec 996 counts_(counts)	I_BPM_sum (Amps)	
________________________________________________________________________________

1.41093400E+6	1.50001677E+1	0.00000000E+0	0.00000000E+0	8.06700000E-13	2.43950000E-12	3.30000000E+1	8.95898449E-5
1.41785500E+6	1.50998321E+1	0.00000000E+0	0.00000000E+0	7.98400000E-13	2.52430000E-12	3.70000000E+1	8.96243470E-5
1.42376400E+6	1.51999801E+1	0.00000000E+0	0.00000000E+0	8.05800000E-13	2.60770000E-12	2.60000000E+1	8.95154732E-5
1.42986200E+6	1.52999733E+1	0.00000000E+0	0.00000000E+0	8.14900000E-13	2.70090000E-12	3.10000000E+1	8.96670478E-5
1.43579600E+6	1.53999729E+1	0.00000000E+0	0.00000000E+0	8.16900000E-13	2.78960000E-12	2.80000000E+1	8.93094974E-5
1.44194800E+6	1.55000515E+1	0.00000000E+0	0.00000000E+0	8.18500000E-13	2.88560000E-12	4.10000000E+1	8.96671640E-5
1.44806000E+6	1.56000074E+1	0.00000000E+0	0.00000000E+0	8.41400000E-13	2.97800000E-12	3.20000000E+1	8.96634298E-5
1.45399700E+6	1.56999919E+1	0.00000000E+0	0.00000000E+0	8.60700000E-13	3.06970000E-12	2.80000000E+1	8.94102203E-5
1.46009700E+6	1.58000014E+1	0.00000000E+0	0.00000000E+0	8.59200000E-13	3.14640000E-12	3.80000000E+1	8.92808574E-5
1.46619700E+6	1.59000124E+1	0.00000000E+0	0.00000000E+0	8.59100000E-13	3.22150000E-12	4.30000000E+1	8.92816650E-5
1.47217400E+6	1.60000006E+1	0.00000000E+0	0.00000000E+0	8.67100000E-13	3.29320000E-12	4.40000000E+1	8.95086842E-5
1.47833100E+6	1.61000045E+1	0.00000000E+0	0.00000000E+0	8.72000000E-13	3.35940000E-12	4.10000000E+1	8.91521083E-5
1.48426300E+6	1.62000224E+1	0.00000000E+0	0.00000000E+0	8.73700000E-13	3.43210000E-12	2.10000000E+1	8.93531399E-5
1.49038800E+6	1.62999665E+1	0.00000000E+0	0.00000000E+0	8.81400000E-13	3.50480000E-12	3.60000000E+1	8.97438216E-5
1.49651200E+6	1.64000304E+1	0.00000000E+0	0.00000000E+0	8.85200000E-13	3.58470000E-12	3.70000000E+1	8.93645572E-5
1.50242500E+6	1.64999734E+1	0.00000000E+0	0.00000000E+0	8.92600000E-13	3.66730000E-12	2.80000000E+1	8.96612334E-5
1.50854000E+6	1.66000160E+1	0.00000000E+0	0.00000000E+0	9.08600000E-13	3.75930000E-12	3.00000000E+1	8.93277275E-5
1.51463000E+6	1.66998890E+1	0.00000000E+0	0.00000000E+0	9.24100000E-13	3.86300000E-12	3.60000000E+1	8.91426997E-5
1.52050500E+6	1.68000485E+1	0.00000000E+0	0.00000000E+0	9.37500000E-13	3.97090000E-12	3.60000000E+1	8.95169514E-5
1.52654000E+6	1.68999696E+1	0.00000000E+0	0.00000000E+0	9.57500000E-13	4.10020000E-12	4.20000000E+1	8.94396591E-5
1.53244900E+6	1.70000237E+1	0.00000000E+0	0.00000000E+0	9.65300000E-13	4.23850000E-12	2.60000000E+1	8.92405348E-5
1.53845700E+6	1.70999792E+1	0.00000000E+0	0.00000000E+0	9.85900000E-13	4.39830000E-12	4.50000000E+1	8.93390911E-5
1.54523000E+6	1.71999325E+1	0.00000000E+0	0.00000000E+0	1.00910000E-12	4.57390000E-12	3.70000000E+1	8.93969791E-5
1.55104800E+6	1.73000584E+1	0.00000000E+0	0.00000000E+0	1.03740000E-12	4.77420000E-12	3.10000000E+1	8.93145101E-5
1.55705700E+6	1.73999961E+1	0.00000000E+0	0.00000000E+0	1.05610000E-12	4.99850000E-12	4.40000000E+1	8.92780291E-5
1.56309100E+6	1.75000441E+1	0.00000000E+0	0.00000000E+0	1.09170000E-12	5.25530000E-12	4.70000000E+1	8.96100539E-5
1.56890700E+6	1.76000342E+1	0.00000000E+0	0.00000000E+0	1.12270000E-12	5.53940000E-12	4.50000000E+1	8.90105264E-5
1.57493900E+6	1.76999703E+1	0.00000000E+0	0.00000000E+0	1.16620000E-12	5.88490000E-12	4.70000000E+1	8.90514271E-5
1.58074700E+6	1.78000121E+1	0.00000000E+0	0.00000000E+0	1.20170000E-12	6.26130000E-12	5.30000000E+1	8.92402278E-5
1.58675700E+6	1.79000130E+1	0.00000000E+0	0.00000000E+0	1.25130000E-12	6.69680000E-12	5.20000000E+1	8.92211663E-5
1.59273200E+6	1.79999789E+1	0.00000000E+0	0.00000000E+0	1.30290000E-12	7.18610000E-12	5.50000000E+1	8.92939942E-5
1.59853900E+6	1.81001038E+1	0.00000000E+0	0.00000000E+0	1.36430000E-12	7.73550000E-12	6.00000000E+1	8.93078344E-5
1.60454500E+6	1.81999684E+1	0.00000000E+0	0.00000000E+0	1.42330000E-12	8.34870000E-12	6.60000000E+1	8.93672096E-5
1.61036500E+6	1.83000107E+1	0.00000000E+0	0.00000000E+0	1.49680000E-12	9.03020000E-12	6.30000000E+1	8.96058130E-5
1.61638000E+6	1.84000245E+1	0.00000000E+0	0.00000000E+0	1.56670000E-12	9.77210000E-12	6.20000000E+1	8.95181763E-5
1.62239100E+6	1.84999349E+1	0.00000000E+0	0.00000000E+0	1.64010000E-12	1.05470000E-11	7.10000000E+1	8.96611917E-5
1.62821300E+6	1.86000882E+1	0.00000000E+0	0.00000000E+0	1.70950000E-12	1.13526000E-11	6.40000000E+1	8.96912562E-5
1.63424600E+6	1.86999601E+1	0.00000000E+0	0.00000000E+0	1.77700000E-12	1.22050000E-11	7.90000000E+1	8.94739287E-5
1.64024400E+6	1.87999861E+1	0.00000000E+0	0.00000000E+0	1.85780000E-12	1.30988000E-11	9.00000000E+1	8.96064835E-5
1.64605700E+6	1.89000662E+1	0.00000000E+0	0.00000000E+0	1.92860000E-12	1.40243000E-11	7.70000000E+1	8.93985467E-5
1.65207300E+6	1.90000377E+1	0.00000000E+0	0.00000000E+0	2.01280000E-12	1.50113000E-11	1.14000000E+2	8.95360696E-5
1.65791600E+6	1.90999693E+1	0.00000000E+0	0.00000000E+0	2.08550000E-12	1.60515000E-11	7.70000000E+1	8.96660196E-5
1.66391200E+6	1.91999937E+1	0.00000000E+0	0.00000000E+0	2.16890000E-12	1.71833000E-11	8.60000000E+1	8.93671560E-5
1.66992000E+6	1.92999450E+1	0.00000000E+0	0.00000000E+0	2.26160000E-12	1.84181000E-11	9.20000000E+1	8.93618929E-5
1.67575900E+6	1.94001121E+1	0.00000000E+0	0.00000000E+0	2.36100000E-12	1.97369000E-11	9.10000000E+1	8.94878911E-5
1.68179000E+6	1.94999571E+1	0.00000000E+0	0.00000000E+0	2.44750000E-12	2.11860000E-11	1.12000000E+2	8.94568431E-5
1.68784800E+6	1.95999562E+1	0.00000000E+0	0.00000000E+0	2.55500000E-12	2.27364000E-11	1.26000000E+2	8.97722620E-5
1.69357700E+6	1.96999079E+1	0.00000000E+0	0.00000000E+0	2.66750000E-12	2.43525000E-11	1.13000000E+2	8.98026663E-5
1.69963700E+6	1.98001154E+1	0.00000000E+0	0.00000000E+0	2.77280000E-12	2.60665000E-11	1.23000000E+2	8.94462156E-5
1.70530500E+6	1.98999237E+1	0.00000000E+0	0.00000000E+0	2.87370000E-12	2.77740000E-11	1.02000000E+2	8.95821082E-5
1.71106600E+6	2.00000570E+1	0.00000000E+0	0.00000000E+0	2.98480000E-12	2.95130000E-11	1.11000000E+2	8.95938235E-5
1.71678000E+6	2.00998824E+1	0.00000000E+0	0.00000000E+0	3.06670000E-12	3.12399000E-11	1.14000000E+2	8.94409853E-5
1.72243800E+6	2.02000092E+1	0.00000000E+0	0.00000000E+0	3.16460000E-12	3.29381000E-11	1.14000000E+2	8.95552265E-5
1.72811300E+6	2.02999936E+1	0.00000000E+0	0.00000000E+0	3.24360000E-12	3.46125000E-11	1.26000000E+2	8.94193875E-5
1.73381200E+6	2.03999865E+1	0.00000000E+0	0.00000000E+0	3.32630000E-12	3.62569000E-11	1.21000000E+2	8.93766093E-5
1.73951100E+6	2.05000765E+1	0.00000000E+0	0.00000000E+0	3.39230000E-12	3.78706000E-11	1.44000000E+2	8.93904047E-5
1.74533700E+6	2.06000438E+1	0.00000000E+0	0.00000000E+0	3.46310000E-12	3.94668000E-11	1.31000000E+2	8.95745950E-5
1.75100800E+6	2.06999054E+1	0.00000000E+0	0.00000000E+0	3.54180000E-12	4.10455000E-11	1.40000000E+2	8.96374392E-5
1.75664900E+6	2.07998915E+1	0.00000000E+0	0.00000000E+0	3.60330000E-12	4.26022000E-11	1.40000000E+2	8.93885361E-5
1.76231300E+6	2.09000629E+1	0.00000000E+0	0.00000000E+0	3.66660000E-12	4.41454000E-11	1.42000000E+2	8.95763683E-5
1.76798700E+6	2.10000506E+1	0.00000000E+0	0.00000000E+0	3.73190000E-12	4.56553000E-11	1.33000000E+2	8.88976471E-5
1.77368300E+6	2.11000901E+1	0.00000000E+0	0.00000000E+0	3.78090000E-12	4.71436000E-11	1.13000000E+2	8.93302935E-5
1.77935600E+6	2.11999120E+1	0.00000000E+0	0.00000000E+0	3.82620000E-12	4.85703000E-11	1.36000000E+2	8.93527406E-5
1.78504800E+6	2.13000156E+1	0.00000000E+0	0.00000000E+0	3.87040000E-12	4.99726000E-11	1.55000000E+2	8.93453943E-5
1.79072200E+6	2.14000212E+1	0.00000000E+0	0.00000000E+0	3.90830000E-12	5.13246000E-11	1.25000000E+2	8.89899002E-5
1.79642100E+6	2.14999882E+1	0.00000000E+0	0.00000000E+0	3.94450000E-12	5.26409000E-11	1.71000000E+2	8.93490898E-5
1.80214700E+6	2.16000167E+1	0.00000000E+0	0.00000000E+0	3.96610000E-12	5.39292000E-11	1.40000000E+2	8.94226509E-5
1.80788100E+6	2.16999798E+1	0.00000000E+0	0.00000000E+0	4.00060000E-12	5.51852000E-11	1.58000000E+2	8.94120412E-5
1.81351900E+6	2.17999793E+1	0.00000000E+0	0.00000000E+0	4.02010000E-12	5.63971000E-11	1.53000000E+2	8.93638121E-5
1.81916800E+6	2.19000424E+1	0.00000000E+0	0.00000000E+0	4.04700000E-12	5.75607000E-11	1.29000000E+2	8.92870950E-5
1.82480800E+6	2.20000397E+1	0.00000000E+0	0.00000000E+0	4.04090000E-12	5.86596000E-11	1.49000000E+2	8.90225844E-5
1.83050900E+6	2.20999166E+1	0.00000000E+0	0.00000000E+0	4.05200000E-12	5.96790000E-11	1.27000000E+2	8.91774612E-5
1.83692900E+6	2.22001005E+1	0.00000000E+0	0.00000000E+0	4.03630000E-12	6.06172000E-11	1.22000000E+2	8.91939121E-5
1.84258900E+6	2.23000590E+1	0.00000000E+0	0.00000000E+0	4.02690000E-12	6.14392000E-11	1.31000000E+2	8.94524174E-5
1.84826200E+6	2.24000196E+1	0.00000000E+0	0.00000000E+0	4.00520000E-12	6.21303000E-11	1.42000000E+2	8.94718456E-5
1.85395700E+6	2.24999704E+1	0.00000000E+0	0.00000000E+0	3.97690000E-12	6.27246000E-11	1.39000000E+2	8.94121157E-5
1.85966400E+6	2.25998571E+1	0.00000000E+0	0.00000000E+0	3.93730000E-12	6.32562000E-11	1.31000000E+2	8.97941339E-5
1.86536000E+6	2.27001295E+1	0.00000000E+0	0.00000000E+0	3.86510000E-12	6.34311000E-11	1.14000000E+2	8.96090883E-5
1.87101200E+6	2.27999787E+1	0.00000000E+0	0.00000000E+0	3.79170000E-12	6.33066000E-11	9.60000000E+1	8.94152807E-5
1.87669900E+6	2.28999389E+1	0.00000000E+0	0.00000000E+0	3.68060000E-12	6.28703000E-11	1.11000000E+2	8.95319896E-5
1.88236700E+6	2.30000013E+1	0.00000000E+0	0.00000000E+0	3.54980000E-12	6.20256000E-11	1.05000000E+2	8.94653248E-5
1.88807300E+6	2.30999827E+1	0.00000000E+0	0.00000000E+0	3.39630000E-12	6.06451000E-11	1.03000000E+2	8.96928268E-5
1.89374600E+6	2.32000015E+1	0.00000000E+0	0.00000000E+0	3.23180000E-12	5.84521000E-11	1.07000000E+2	8.95109045E-5
1.89943800E+6	2.32999586E+1	0.00000000E+0	0.00000000E+0	3.08710000E-12	5.48832000E-11	9.30000000E+1	8.94256758E-5
1.90514100E+6	2.33999754E+1	0.00000000E+0	0.00000000E+0	2.95970000E-12	4.85607000E-11	9.60000000E+1	8.94873100E-5
1.91085000E+6	2.35000874E+1	0.00000000E+0	0.00000000E+0	2.71070000E-12	3.66677000E-11	9.30000000E+1	8.97974598E-5
1.91660300E+6	2.36000128E+1	0.00000000E+0	0.00000000E+0	2.28940000E-12	2.23175000E-11	5.90000000E+1	8.93755990E-5
1.92218000E+6	2.36997820E+1	0.00000000E+0	0.00000000E+0	2.05110000E-12	1.56638000E-11	5.00000000E+1	8.98078996E-5
1.92785600E+6	2.38001668E+1	0.00000000E+0	0.00000000E+0	1.99130000E-12	1.37968000E-11	5.40000000E+1	8.97421407E-5
1.93354100E+6	2.38999120E+1	0.00000000E+0	0.00000000E+0	1.97870000E-12	1.32731000E-11	6.10000000E+1	8.95709383E-5
1.93909400E+6	2.39997437E+1	0.00000000E+0	0.00000000E+0	1.96250000E-12	1.30544000E-11	5.40000000E+1	8.95979720E-5
1.94465300E+6	2.40999857E+1	0.00000000E+0	0.00000000E+0	1.94740000E-12	1.28929000E-11	5.60000000E+1	8.94889044E-5
1.95026200E+6	2.42001594E+1	0.00000000E+0	0.00000000E+0	1.92390000E-12	1.27363000E-11	6.40000000E+1	8.94139069E-5
1.95579900E+6	2.42999630E+1	0.00000000E+0	0.00000000E+0	1.90340000E-12	1.25508000E-11	7.90000000E+1	8.93457489E-5
1.96135200E+6	2.43998149E+1	0.00000000E+0	0.00000000E+0	1.87650000E-12	1.22813000E-11	7.00000000E+1	8.96422582E-5
1.96699600E+6	2.45001964E+1	0.00000000E+0	0.00000000E+0	1.85860000E-12	1.17845000E-11	4.60000000E+1	8.95795243E-5
1.97255300E+6	2.45998743E+1	0.00000000E+0	0.00000000E+0	1.81360000E-12	1.07770000E-11	5.30000000E+1	8.94802558E-5
1.97824000E+6	2.47001173E+1	0.00000000E+0	0.00000000E+0	1.77270000E-12	9.66190000E-12	5.90000000E+1	8.94710260E-5
1.98378500E+6	2.47999242E+1	0.00000000E+0	0.00000000E+0	1.75010000E-12	9.08530000E-12	6.30000000E+1	8.97253769E-5
1.98934500E+6	2.48999329E+1	0.00000000E+0	0.00000000E+0	1.71560000E-12	8.80180000E-12	5.40000000E+1	8.95311969E-5
1.99490600E+6	2.49999855E+1	0.00000000E+0	0.00000000E+0	1.69990000E-12	8.59790000E-12	4.90000000E+1	8.92509954E-5
