G:\BEAR_storage\User_Experiments\20220317_arneodo\file(1)_Region 4__0081.txt
Ring Energy (GeV): 2
Lifetime (hours): 15.63
Scan beginning: 3/21/2022	8:07:35 PM
Ring current (mA): 308.66
Source position: x (mm): 0.006 x' (mrad): 0.001 y (mm): -0.001 y' (mrad): -0
Scan end: 3/21/2022	8:32:30 PM
Ring current (mA): 309.02
Source position: x (mm): 0.006 x' (mrad): 0.001 y (mm): -0.001 y' (mrad): -0

SCAN TYPE: PHOTON ENERGY VS VAR_1 VS VAR_2

FILE INFO: FILE INFO:

SCAN PARAMETERS
waiting time (ms): 1000
Number of scans: 1
Current scan number: 1
DARK OFF 
PREDARK OFF 

SCAN PARAMETERS
Regions configuration: 
number of regions: 7
Mirror grating scan: on
Timed acquisition: off
Region 1:
Initial energy (eV): 3.000000
Final energy (eV): 4.500000
Delta energy (eV): 0.100000
Deviation angle choice: Degrees: 
Deviation angle (°): NaN
B270 window
GNIM channel
range keithley B 200 pA
range keithley C 200 pA
range keithley A 200 pA
Var_1: PsiC 0.000000
Var_2: PhiM0.000000
Bias CEM (V): 0.000000
Bias Keithley B (V): -30.000000
Name region: 
Region 2:
Initial energy (eV): 4.000000
Final energy (eV): 8.000000
Delta energy (eV): 0.100000
Deviation angle choice: Degrees: 
Deviation angle (°): NaN
SiO2 window
GNIM channel
range keithley B 200 pA
range keithley C 200 pA
range keithley A 200 pA
Var_1: PsiC 0.000000
Var_2: PhiM0.000000
Bias CEM (V): 0.000000
Bias Keithley B (V): -30.000000
Name region: 
Region 3:
Initial energy (eV): 7.000000
Final energy (eV): 12.000000
Delta energy (eV): 0.100000
Deviation angle choice: Degrees: 
Deviation angle (°): NaN
filter LiF window
GNIM channel
range keithley B 200 pA
range keithley C 200 pA
range keithley A 200 pA
Var_1: PsiC 0.000000
Var_2: PhiM0.000000
Bias CEM (V): 0.000000
Bias Keithley B (V): -30.000000
Name region: 
Region 4:
Initial energy (eV): 11.000000
Final energy (eV): 18.000000
Delta energy (eV): 0.100000
Deviation angle choice: Degrees: 
Deviation angle (°): NaN
In filter
GNIM channel
range keithley B 200 pA
range keithley C 200 pA
range keithley A 200 pA
Var_1: PsiC 0.000000
Var_2: PhiM0.000000
Bias CEM (V): 0.000000
Bias Keithley B (V): -30.000000
Name region: 
Region 5:
Initial energy (eV): 15.000000
Final energy (eV): 25.000000
Delta energy (eV): 0.100000
Deviation angle choice: Degrees: 
Deviation angle (°): NaN
Sn filter
GNIM channel
range keithley B 200 pA
range keithley C 200 pA
range keithley A 200 pA
Var_1: PsiC 0.000000
Var_2: PhiM0.000000
Bias CEM (V): 0.000000
Bias Keithley B (V): -30.000000
Name region: 
Region 6:
Initial energy (eV): 23.000000
Final energy (eV): 45.000000
Delta energy (eV): 0.100000
Deviation angle choice: Degrees: 
Deviation angle (°): NaN
Full Beam
GNIM channel
range keithley B 20 nA
range keithley C 200 pA
range keithley A 20 nA
Var_1: PsiC 0.000000
Var_2: PhiM0.000000
Bias CEM (V): 0.000000
Bias Keithley B (V): -30.000000
Name region: 
Region 7:
Initial energy (eV): 23.000000
Final energy (eV): 45.000000
Delta energy (eV): 0.100000
Deviation angle choice: Degrees: 
Deviation angle (°): NaN
Al filter
GNIM channel
range keithley B 20 nA
range keithley C 200 pA
range keithley A 20 nA
Var_1: PsiC 0.000000
Var_2: PhiM0.000000
Bias CEM (V): 0.000000
Bias Keithley B (V): -30.000000
Name region: 

BEAR MONOCHROMATOR CONFIGURATION: 
Current Grating Position:     -236071.80
Current Mirror Position: 2557.0
Current Grating: GNIM
P2 phiz position:  0.0000
Mono axis position: 73.5000
Current Photon Energy (eV): 2.641
Current Deviation Angle: 29.905
Vertical Exit Slits (um): 100.000
Exit slit y axis position: 1.3625
Horizontal Exit Slits (um):  889.156
Exit slit z axis position: 1.9229
Mitutoyo position (mm): 

Dose on sample (mJ/cm^2): NaN

ENERGY CALIBRATION:
offset grating G1200: yes
Delta 0 order G1200:  -1100.0
offset grating G1800: not
Delta 0 order G1800:  0.0
offset grating GNIM: not
Delta 0 order GNIM:  0.0
ZERO ORDER POSITIONS:
Grating G1200: Mirror position:  4938.0
Grating position: -105355.0
Grating G1800: 
Mirror position:  4938.0
Grating position: -106345.0
Grating GNIM: 
Mirror position:  10000.0
Grating position: 227300.0

Initial filter: Al filter

EXPERIMENTAL CHAMBER CONFIGURATION: 
PsiC (deg):   -0.000186
Phi Analyzer (degrees): 89.993255
Theta Manipulator (degrees): -44.000040
Theta Analyzer (degrees): -135.001468
PhiM (degrees): -0.003077
XM (mm): -11.999075
YM (mm): 9.947225
ZM (mm): (Warning: for kinetic energy scans, 
this parameter is given in the scan settings) 
-6.001413
TiltM (°): 0.000138

ELECTRON ANALYZER CONFIGURATION: 
Current Kinetik energy (eV): 35.0
Mode: DE = COST
Pass Energy (eV):  100.000
CEM: ON
Bias Front-Back CEM (V): 3499.698
Bias Back-Collector CEM (V): 100.874
Bias Retard-Front CEM: 100.104COIL VALUES
Ix (amps):2.820
Iy (amps): 6.789
Iz (amps): 37.403

POLARIZATION SELECTOR CONFIGURATION:
Psi1 (rad): -0.001665535
Psi2 (rad): 0.001417093
Z min position (mm): 46.599650
DZ position (mm): 18.599100
Zmin 0 (mm): 65.700000
DZ0 (mm): 54.000000

BEAM SELECTOR CONFIGURATION:
Zmin position (mm): NaN
DZ position (mm): NaN
Y+ position (mm): NaN
Y- position (mm): NaN

CHANNEL ELECTRON MULTIPLIER CONFIGURATION:
CEM configured: OFF
Bias CEM: 0.000000

FLUORESCENCE DETECTOR CONFIGURATION:
Not configured

LUMINESCENCE MONOCHROMATOR CONFIGURATION:
Optical fiber position (mm): 0.000000
Optical fiber Switch inside: ON
Optical fiber Switch outside: ON
Monochromator wavelength (A): 0.000000
Limit Switches: ON

I0 MONITOR PARAMETERS:
I0 detector position(mm): NaN
Lower switch: OFF
Upper switch: OFF
Valve status:unread

PRESSURE PARAMETERS:
Monitor chamber pressure (mbar): 8.976e-10
Experimental chamber pressure -ION GAUGE-(mbar): 0.000000E+0

XMCD PARAMETERS:
Xmcd OFF
Xmcd Direction -
Xmcd current (A): 0.000000

Gated scan off

Instrument 1: AMMETER KEITHLEY 6517A B
Measure type: Current
range type: set range value
range value (ampere):  200 pA
Integration time:  set NPLC value
NPLC value: 10.000
Digital filter count: 2
SAMPLE BIAS (V): -30.000
Vsource: ON
Output Voltage value: 30.000
Vsource range: 1000 V

Range Keithley B changed to 20 nA

Range Keithley B changed to 200 pA

Range Keithley B changed to 20 nA

Range Keithley B changed to 200 pA

Keithley B Bias (V) changed to: 0.000000

Range Keithley B changed to 20 nA

Keithley B Bias (V) changed to: -30.000000

Range Keithley B changed to 200 pA

Range Keithley B changed to 20 nA

Range Keithley B changed to 200 pA

Range Keithley B changed to 20 nA

Range Keithley B changed to 200 pA

Range Keithley B changed to 20 nA

Range Keithley B changed to 200 pA

Keithley B Bias (V) changed to: 0.000000

Keithley B Bias (V) changed to: -30.000000

Instrument 2: AMMETER KEITHLEY 6517A A
Measure type: Current
range type: set range value
range value (ampere):  200 pA
Integration time:  set NPLC value
NPLC value: 10.000
Digital filter count: 2
Vsource: OFF
Output Voltage value: -0.000
Vsource range: 100 V
Trigger source: bus

Range Keithley A changed to 20 nA

Range Keithley A changed to 200 nA

Range Keithley A changed to 200 pA

Range Keithley A changed to 20 nA

Range Keithley A changed to 200 pA

Range Keithley A changed to 20 nA

Range Keithley A changed to 200 nA

Range Keithley A changed to 200 pA

Range Keithley A changed to 20 nA

Range Keithley A changed to 200 pA

Range Keithley A changed to 20 nA

Range Keithley A changed to 200 nA

Range Keithley A changed to 200 pA

Range Keithley A changed to 20 nA

Range Keithley A changed to 200 pA

Range Keithley A changed to 20 nA

Range Keithley A changed to 200 pA

Instrument 3: COUNTER ORTEC 996Integration time (sec): 1.000


Range Keithley C changed to 200 nA


Range Keithley C changed to 2 uA


Range Keithley C changed to 200 nA


Range Keithley C changed to 2 uA


Range Keithley C changed to 200 pA


________________________________________________________________________________

RelativeTime (msec)	Photon Energy	Var_1	Var_2	INSTR_1_Sample with Bias _(ampere ) 	INSTR_2_Monitor IM_(ampere)  	INSTR_3_Ortec 996 counts_(counts)	I_BPM_sum (Amps)	
________________________________________________________________________________

1.03445400E+6	1.10000237E+1	0.00000000E+0	0.00000000E+0	4.27400000E-13	8.02000000E-14	0.00000000E+0	9.00964755E-5
1.04199600E+6	1.10999233E+1	0.00000000E+0	0.00000000E+0	4.20900000E-13	7.66000000E-14	0.00000000E+0	9.00554526E-5
1.04866700E+6	1.11999318E+1	0.00000000E+0	0.00000000E+0	4.25000000E-13	8.39000000E-14	0.00000000E+0	8.98763049E-5
1.05536200E+6	1.13000474E+1	0.00000000E+0	0.00000000E+0	4.23800000E-13	9.68000000E-14	0.00000000E+0	8.95444917E-5
1.06196700E+6	1.13999723E+1	0.00000000E+0	0.00000000E+0	4.23200000E-13	1.30700000E-13	0.00000000E+0	8.99003434E-5
1.06859400E+6	1.15000049E+1	0.00000000E+0	0.00000000E+0	4.23900000E-13	1.96800000E-13	0.00000000E+0	8.95851957E-5
1.07521100E+6	1.16000161E+1	0.00000000E+0	0.00000000E+0	4.31900000E-13	2.80700000E-13	0.00000000E+0	9.01164818E-5
1.08175400E+6	1.17000145E+1	0.00000000E+0	0.00000000E+0	4.39400000E-13	3.37000000E-13	0.00000000E+0	8.94598054E-5
1.08829900E+6	1.18000109E+1	0.00000000E+0	0.00000000E+0	4.37300000E-13	3.74100000E-13	0.00000000E+0	8.97608566E-5
1.09489500E+6	1.19000185E+1	0.00000000E+0	0.00000000E+0	4.42900000E-13	4.29900000E-13	0.00000000E+0	8.96899479E-5
1.10144300E+6	1.20000412E+1	0.00000000E+0	0.00000000E+0	4.48700000E-13	5.23500000E-13	0.00000000E+0	9.00155145E-5
1.10783600E+6	1.20999648E+1	0.00000000E+0	0.00000000E+0	4.62300000E-13	6.70000000E-13	0.00000000E+0	8.98345756E-5
1.11421600E+6	1.22000217E+1	0.00000000E+0	0.00000000E+0	4.74500000E-13	8.76700000E-13	0.00000000E+0	8.98000198E-5
1.12060500E+6	1.22999914E+1	0.00000000E+0	0.00000000E+0	5.04200000E-13	1.09540000E-12	2.00000000E+0	8.98468095E-5
1.12702500E+6	1.24000298E+1	0.00000000E+0	0.00000000E+0	4.99600000E-13	1.21720000E-12	0.00000000E+0	8.98871767E-5
1.13346400E+6	1.24999978E+1	0.00000000E+0	0.00000000E+0	4.93200000E-13	1.23090000E-12	1.00000000E+0	8.94303428E-5
1.13993200E+6	1.25999948E+1	0.00000000E+0	0.00000000E+0	4.90600000E-13	1.19240000E-12	1.00000000E+0	8.97744077E-5
1.14641700E+6	1.27000230E+1	0.00000000E+0	0.00000000E+0	4.86000000E-13	1.14720000E-12	1.00000000E+0	8.96105337E-5
1.15275500E+6	1.27999248E+1	0.00000000E+0	0.00000000E+0	4.88000000E-13	1.13700000E-12	1.00000000E+0	8.96710860E-5
1.15905500E+6	1.29000509E+1	0.00000000E+0	0.00000000E+0	4.88600000E-13	1.16500000E-12	0.00000000E+0	8.94353437E-5
1.16535300E+6	1.30000017E+1	0.00000000E+0	0.00000000E+0	5.09100000E-13	1.27320000E-12	1.00000000E+0	8.95240563E-5
1.17164000E+6	1.30999709E+1	0.00000000E+0	0.00000000E+0	5.16800000E-13	1.44780000E-12	3.00000000E+0	8.94474285E-5
1.17791500E+6	1.32000513E+1	0.00000000E+0	0.00000000E+0	5.39400000E-13	1.68200000E-12	0.00000000E+0	8.96592187E-5
1.18420200E+6	1.33000102E+1	0.00000000E+0	0.00000000E+0	5.57800000E-13	1.94300000E-12	1.00000000E+0	8.93549966E-5
1.19050400E+6	1.33999979E+1	0.00000000E+0	0.00000000E+0	5.74500000E-13	2.20330000E-12	1.00000000E+0	8.96572369E-5
1.19680000E+6	1.34999960E+1	0.00000000E+0	0.00000000E+0	6.02500000E-13	2.40410000E-12	3.00000000E+0	8.97839802E-5
1.20309100E+6	1.36000318E+1	0.00000000E+0	0.00000000E+0	6.09000000E-13	2.50860000E-12	3.00000000E+0	8.96313506E-5
1.20934700E+6	1.36999966E+1	0.00000000E+0	0.00000000E+0	6.11600000E-13	2.52960000E-12	1.00000000E+0	9.00397408E-5
1.21562600E+6	1.38000100E+1	0.00000000E+0	0.00000000E+0	5.96300000E-13	2.50000000E-12	1.00000000E+0	8.94170808E-5
1.22193600E+6	1.39000103E+1	0.00000000E+0	0.00000000E+0	6.23300000E-13	2.48790000E-12	2.00000000E+0	8.95753908E-5
1.22819900E+6	1.39999968E+1	0.00000000E+0	0.00000000E+0	6.15400000E-13	2.48540000E-12	1.00000000E+0	8.95249563E-5
1.23446300E+6	1.41000025E+1	0.00000000E+0	0.00000000E+0	6.12300000E-13	2.52600000E-12	3.00000000E+0	8.92686563E-5
1.24074700E+6	1.42000136E+1	0.00000000E+0	0.00000000E+0	6.11800000E-13	2.63460000E-12	4.00000000E+0	8.95479816E-5
1.24699200E+6	1.42999998E+1	0.00000000E+0	0.00000000E+0	6.32300000E-13	2.81300000E-12	5.00000000E+0	8.96674949E-5
1.25324700E+6	1.43999975E+1	0.00000000E+0	0.00000000E+0	6.66600000E-13	3.05650000E-12	5.00000000E+0	8.98757535E-5
1.25948100E+6	1.44999432E+1	0.00000000E+0	0.00000000E+0	6.69000000E-13	3.31560000E-12	9.00000000E+0	8.98027766E-5
1.26575400E+6	1.46000666E+1	0.00000000E+0	0.00000000E+0	6.96800000E-13	3.58340000E-12	3.00000000E+0	8.97793311E-5
1.27205000E+6	1.46999400E+1	0.00000000E+0	0.00000000E+0	7.20100000E-13	3.82480000E-12	5.00000000E+0	8.98514110E-5
1.27823100E+6	1.48000079E+1	0.00000000E+0	0.00000000E+0	7.50000000E-13	3.99530000E-12	4.00000000E+0	9.00395262E-5
1.28436700E+6	1.49000323E+1	0.00000000E+0	0.00000000E+0	7.65400000E-13	4.06990000E-12	5.00000000E+0	8.97007304E-5
1.29051800E+6	1.49999655E+1	0.00000000E+0	0.00000000E+0	7.53100000E-13	4.07220000E-12	9.00000000E+0	8.96536129E-5
1.29668900E+6	1.51000370E+1	0.00000000E+0	0.00000000E+0	7.65600000E-13	4.05120000E-12	9.00000000E+0	8.99443257E-5
1.30267800E+6	1.52000178E+1	0.00000000E+0	0.00000000E+0	7.76200000E-13	4.01810000E-12	8.00000000E+0	8.95402896E-5
1.30949000E+6	1.52999924E+1	0.00000000E+0	0.00000000E+0	7.57800000E-13	4.00350000E-12	6.00000000E+0	8.97638339E-5
1.31538500E+6	1.53999923E+1	0.00000000E+0	0.00000000E+0	7.80700000E-13	4.05470000E-12	6.00000000E+0	8.98374337E-5
1.32145200E+6	1.55000122E+1	0.00000000E+0	0.00000000E+0	7.71500000E-13	4.13480000E-12	9.00000000E+0	8.96633046E-5
1.32757100E+6	1.56000472E+1	0.00000000E+0	0.00000000E+0	7.80100000E-13	4.27370000E-12	6.00000000E+0	8.98456085E-5
1.33351500E+6	1.56999717E+1	0.00000000E+0	0.00000000E+0	8.08900000E-13	4.43050000E-12	8.00000000E+0	8.97898721E-5
1.33959900E+6	1.58000014E+1	0.00000000E+0	0.00000000E+0	8.30100000E-13	4.56630000E-12	1.10000000E+1	8.97508251E-5
1.34570600E+6	1.58999918E+1	0.00000000E+0	0.00000000E+0	8.27500000E-13	4.60310000E-12	1.10000000E+1	9.00341201E-5
1.35166200E+6	1.60000215E+1	0.00000000E+0	0.00000000E+0	8.29600000E-13	4.52840000E-12	9.00000000E+0	8.99568367E-5
1.35786300E+6	1.61000468E+1	0.00000000E+0	0.00000000E+0	7.98700000E-13	4.31520000E-12	8.00000000E+0	8.94408690E-5
1.36386600E+6	1.62000010E+1	0.00000000E+0	0.00000000E+0	7.70600000E-13	3.97280000E-12	1.00000000E+1	8.98540455E-5
1.37006400E+6	1.62999882E+1	0.00000000E+0	0.00000000E+0	7.29200000E-13	3.48130000E-12	1.10000000E+1	8.97151577E-5
1.37619900E+6	1.64000084E+1	0.00000000E+0	0.00000000E+0	6.56600000E-13	2.62780000E-12	5.00000000E+0	8.97631156E-5
1.38219400E+6	1.65000178E+1	0.00000000E+0	0.00000000E+0	5.07300000E-13	1.30310000E-12	2.00000000E+0	8.94003170E-5
1.38834300E+6	1.65999935E+1	0.00000000E+0	0.00000000E+0	4.40700000E-13	4.54500000E-13	2.00000000E+0	8.95000982E-5
1.39458100E+6	1.66999802E+1	0.00000000E+0	0.00000000E+0	4.09500000E-13	2.23000000E-13	0.00000000E+0	8.96024304E-5
1.40046700E+6	1.68000024E+1	0.00000000E+0	0.00000000E+0	3.97100000E-13	1.73100000E-13	0.00000000E+0	8.97643286E-5
1.40645500E+6	1.68999929E+1	0.00000000E+0	0.00000000E+0	4.03100000E-13	1.52700000E-13	0.00000000E+0	8.91452598E-5
1.41245500E+6	1.70000001E+1	0.00000000E+0	0.00000000E+0	4.12700000E-13	1.66200000E-13	0.00000000E+0	8.95591396E-5
1.41843500E+6	1.70999792E+1	0.00000000E+0	0.00000000E+0	4.14700000E-13	1.59900000E-13	0.00000000E+0	8.94765186E-5
1.42442000E+6	1.71999325E+1	0.00000000E+0	0.00000000E+0	4.03600000E-13	1.60800000E-13	0.00000000E+0	8.97139865E-5
1.43026600E+6	1.73000584E+1	0.00000000E+0	0.00000000E+0	4.12900000E-13	1.52200000E-13	0.00000000E+0	8.96361935E-5
1.43640500E+6	1.74000456E+1	0.00000000E+0	0.00000000E+0	4.01100000E-13	1.33100000E-13	0.00000000E+0	8.95813333E-5
1.44223700E+6	1.74999440E+1	0.00000000E+0	0.00000000E+0	3.95500000E-13	1.11400000E-13	1.00000000E+0	8.93641757E-5
1.44830700E+6	1.76000342E+1	0.00000000E+0	0.00000000E+0	3.90700000E-13	1.04700000E-13	1.00000000E+0	8.96469432E-5
1.45448500E+6	1.77000215E+1	0.00000000E+0	0.00000000E+0	3.93400000E-13	1.04100000E-13	0.00000000E+0	8.96327424E-5
1.46037000E+6	1.78000380E+1	0.00000000E+0	0.00000000E+0	3.97400000E-13	1.07400000E-13	0.00000000E+0	8.94527661E-5
1.46650300E+6	1.78999606E+1	0.00000000E+0	0.00000000E+0	3.97300000E-13	1.10500000E-13	0.00000000E+0	8.96349388E-5
1.47257400E+6	1.80000054E+1	0.00000000E+0	0.00000000E+0	4.00400000E-13	1.17100000E-13	0.00000000E+0	8.94423085E-5
