G:\BEAR_storage\User_Experiments\20220317_arneodo\file(1)_Region 5__0083.txt
Ring Energy (GeV): 2
Lifetime (hours): 15.6872
Scan beginning: 3/21/2022	11:00:25 PM
Ring current (mA): 309.13
Source position: x (mm): 0.008 x' (mrad): -0 y (mm): -0.002 y' (mrad): 0.002
Scan end: 3/21/2022	11:34:40 PM
Ring current (mA): 309.05
Source position: x (mm): 0.008 x' (mrad): -0.001 y (mm): -0.001 y' (mrad): 0.001

SCAN TYPE: PHOTON ENERGY VS VAR_1 VS VAR_2

FILE INFO: FILE INFO:

SCAN PARAMETERS
waiting time (ms): 1000
Number of scans: 1
Current scan number: 1
DARK OFF 
PREDARK OFF 

SCAN PARAMETERS
Regions configuration: 
number of regions: 7
Mirror grating scan: on
Timed acquisition: off
Region 1:
Initial energy (eV): 3.000000
Final energy (eV): 4.500000
Delta energy (eV): 0.100000
Deviation angle choice: Degrees: 
Deviation angle (°): NaN
B270 window
GNIM channel
range keithley B 200 pA
range keithley C 200 pA
range keithley A 200 pA
Var_1: PsiC 0.000000
Var_2: PhiM0.000000
Bias CEM (V): 0.000000
Bias Keithley B (V): -30.000000
Name region: 
Region 2:
Initial energy (eV): 4.000000
Final energy (eV): 8.000000
Delta energy (eV): 0.100000
Deviation angle choice: Degrees: 
Deviation angle (°): NaN
SiO2 window
GNIM channel
range keithley B 200 pA
range keithley C 200 pA
range keithley A 200 pA
Var_1: PsiC 0.000000
Var_2: PhiM0.000000
Bias CEM (V): 0.000000
Bias Keithley B (V): -30.000000
Name region: 
Region 3:
Initial energy (eV): 7.000000
Final energy (eV): 12.000000
Delta energy (eV): 0.100000
Deviation angle choice: Degrees: 
Deviation angle (°): NaN
filter LiF window
GNIM channel
range keithley B 200 pA
range keithley C 200 pA
range keithley A 200 pA
Var_1: PsiC 0.000000
Var_2: PhiM0.000000
Bias CEM (V): 0.000000
Bias Keithley B (V): -30.000000
Name region: 
Region 4:
Initial energy (eV): 11.000000
Final energy (eV): 18.000000
Delta energy (eV): 0.100000
Deviation angle choice: Degrees: 
Deviation angle (°): NaN
In filter
GNIM channel
range keithley B 200 pA
range keithley C 200 pA
range keithley A 200 pA
Var_1: PsiC 0.000000
Var_2: PhiM0.000000
Bias CEM (V): 0.000000
Bias Keithley B (V): -30.000000
Name region: 
Region 5:
Initial energy (eV): 15.000000
Final energy (eV): 25.000000
Delta energy (eV): 0.100000
Deviation angle choice: Degrees: 
Deviation angle (°): NaN
Sn filter
GNIM channel
range keithley B 200 pA
range keithley C 200 pA
range keithley A 200 pA
Var_1: PsiC 0.000000
Var_2: PhiM0.000000
Bias CEM (V): 0.000000
Bias Keithley B (V): -30.000000
Name region: 
Region 6:
Initial energy (eV): 23.000000
Final energy (eV): 45.000000
Delta energy (eV): 0.100000
Deviation angle choice: Degrees: 
Deviation angle (°): NaN
Full Beam
GNIM channel
range keithley B 20 nA
range keithley C 200 pA
range keithley A 20 nA
Var_1: PsiC 0.000000
Var_2: PhiM0.000000
Bias CEM (V): 0.000000
Bias Keithley B (V): -30.000000
Name region: 
Region 7:
Initial energy (eV): 23.000000
Final energy (eV): 45.000000
Delta energy (eV): 0.100000
Deviation angle choice: Degrees: 
Deviation angle (°): NaN
Al filter
GNIM channel
range keithley B 20 nA
range keithley C 200 pA
range keithley A 20 nA
Var_1: PsiC 0.000000
Var_2: PhiM0.000000
Bias CEM (V): 0.000000
Bias Keithley B (V): -30.000000
Name region: 

BEAR MONOCHROMATOR CONFIGURATION: 
Current Grating Position:     200056.90
Current Mirror Position: 10000.1
Current Grating: GNIM
P2 phiz position:  -0.0195
Mono axis position: 73.5000
Current Photon Energy (eV): 45.000
Current Deviation Angle: 29.905
Vertical Exit Slits (um): 100.000
Exit slit y axis position: 1.3625
Horizontal Exit Slits (um):  889.156
Exit slit z axis position: 1.9229
Mitutoyo position (mm): 

Dose on sample (mJ/cm^2): NaN

ENERGY CALIBRATION:
offset grating G1200: yes
Delta 0 order G1200:  -1100.0
offset grating G1800: not
Delta 0 order G1800:  0.0
offset grating GNIM: not
Delta 0 order GNIM:  0.0
ZERO ORDER POSITIONS:
Grating G1200: Mirror position:  4938.0
Grating position: -105355.0
Grating G1800: 
Mirror position:  4938.0
Grating position: -106345.0
Grating GNIM: 
Mirror position:  10000.0
Grating position: 227300.0

Initial filter: Al filter

EXPERIMENTAL CHAMBER CONFIGURATION: 
PsiC (deg):   -0.000186
Phi Analyzer (degrees): 89.993255
Theta Manipulator (degrees): -44.000040
Theta Analyzer (degrees): -135.001468
PhiM (degrees): -0.003077
XM (mm): -4.499125
YM (mm): 25.932050
ZM (mm): (Warning: for kinetic energy scans, 
this parameter is given in the scan settings) 
-14.001375
TiltM (°): 0.000138

ELECTRON ANALYZER CONFIGURATION: 
Current Kinetik energy (eV): 35.0
Mode: DE = COST
Pass Energy (eV):  100.000
CEM: ON
Bias Front-Back CEM (V): 3499.698
Bias Back-Collector CEM (V): 100.874
Bias Retard-Front CEM: 100.104COIL VALUES
Ix (amps):2.820
Iy (amps): 6.789
Iz (amps): 37.403

POLARIZATION SELECTOR CONFIGURATION:
Psi1 (rad): -0.001665535
Psi2 (rad): 0.001417093
Z min position (mm): 46.599650
DZ position (mm): 18.599100
Zmin 0 (mm): 65.700000
DZ0 (mm): 54.000000

BEAM SELECTOR CONFIGURATION:
Zmin position (mm): NaN
DZ position (mm): NaN
Y+ position (mm): NaN
Y- position (mm): NaN

CHANNEL ELECTRON MULTIPLIER CONFIGURATION:
CEM configured: OFF
Bias CEM: 0.000000

FLUORESCENCE DETECTOR CONFIGURATION:
Not configured

LUMINESCENCE MONOCHROMATOR CONFIGURATION:
Optical fiber position (mm): 0.000000
Optical fiber Switch inside: ON
Optical fiber Switch outside: ON
Monochromator wavelength (A): 0.000000
Limit Switches: ON

I0 MONITOR PARAMETERS:
I0 detector position(mm): NaN
Lower switch: OFF
Upper switch: OFF
Valve status:unread

PRESSURE PARAMETERS:
Monitor chamber pressure (mbar): 9.049e-10
Experimental chamber pressure -ION GAUGE-(mbar): 0.000000E+0

XMCD PARAMETERS:
Xmcd OFF
Xmcd Direction -
Xmcd current (A): 0.000000

Gated scan off

Instrument 1: AMMETER KEITHLEY 6517A B
Measure type: Current
range type: set range value
range value (ampere):  200 pA
Integration time:  set NPLC value
NPLC value: 10.000
Digital filter count: 2
SAMPLE BIAS (V): -30.000
Vsource: ON
Output Voltage value: 30.000
Vsource range: 1000 V

Range Keithley B changed to 20 nA

Range Keithley B changed to 200 pA

Range Keithley B changed to 20 nA

Range Keithley B changed to 200 pA

Keithley B Bias (V) changed to: 0.000000

Range Keithley B changed to 20 nA

Keithley B Bias (V) changed to: -30.000000

Range Keithley B changed to 200 pA

Range Keithley B changed to 20 nA

Range Keithley B changed to 200 pA

Range Keithley B changed to 20 nA

Range Keithley B changed to 200 pA

Range Keithley B changed to 20 nA

Range Keithley B changed to 200 pA

Keithley B Bias (V) changed to: 0.000000

Keithley B Bias (V) changed to: -30.000000

Range Keithley B changed to 20 nA

Range Keithley B changed to 200 pA

Range Keithley B changed to 20 nA

Range Keithley B changed to 200 pA

Range Keithley B changed to 20 nA

Instrument 2: AMMETER KEITHLEY 6517A A
Measure type: Current
range type: set range value
range value (ampere):  200 pA
Integration time:  set NPLC value
NPLC value: 10.000
Digital filter count: 2
Vsource: OFF
Output Voltage value: -0.000
Vsource range: 100 V
Trigger source: bus

Range Keithley A changed to 20 nA

Range Keithley A changed to 200 nA

Range Keithley A changed to 200 pA

Range Keithley A changed to 20 nA

Range Keithley A changed to 200 pA

Range Keithley A changed to 20 nA

Range Keithley A changed to 200 nA

Range Keithley A changed to 200 pA

Range Keithley A changed to 20 nA

Range Keithley A changed to 200 pA

Range Keithley A changed to 20 nA

Range Keithley A changed to 200 nA

Range Keithley A changed to 200 pA

Range Keithley A changed to 20 nA

Range Keithley A changed to 200 pA

Range Keithley A changed to 20 nA

Range Keithley A changed to 200 pA

Range Keithley A changed to 20 nA

Range Keithley A changed to 200 pA

Range Keithley A changed to 20 nA

Range Keithley A changed to 200 pA

Range Keithley A changed to 20 nA

Instrument 3: COUNTER ORTEC 996Integration time (sec): 1.000


Range Keithley C changed to 200 nA


Range Keithley C changed to 2 uA


Range Keithley C changed to 200 nA


Range Keithley C changed to 2 uA


Range Keithley C changed to 200 pA


________________________________________________________________________________

RelativeTime (msec)	Photon Energy	Var_1	Var_2	INSTR_1_Sample with Bias _(ampere ) 	INSTR_2_Monitor IM_(ampere)  	INSTR_3_Ortec 996 counts_(counts)	I_BPM_sum (Amps)	
________________________________________________________________________________

1.43955200E+6	1.50001493E+1	0.00000000E+0	0.00000000E+0	4.18570000E-12	7.74400000E-13	6.00000000E+0	8.93950539E-5
1.44671500E+6	1.50998321E+1	0.00000000E+0	0.00000000E+0	4.56110000E-12	8.43200000E-13	1.50000000E+1	8.93907624E-5
1.45278600E+6	1.51998857E+1	0.00000000E+0	0.00000000E+0	5.00360000E-12	9.21800000E-13	1.90000000E+1	8.92070161E-5
1.45906000E+6	1.53000689E+1	0.00000000E+0	0.00000000E+0	5.49120000E-12	1.00910000E-12	2.00000000E+1	8.94574957E-5
1.46506400E+6	1.53999923E+1	0.00000000E+0	0.00000000E+0	5.98910000E-12	1.09920000E-12	2.30000000E+1	8.92181145E-5
1.47136200E+6	1.55000122E+1	0.00000000E+0	0.00000000E+0	6.51120000E-12	1.18890000E-12	2.30000000E+1	8.91113984E-5
1.47762400E+6	1.55999875E+1	0.00000000E+0	0.00000000E+0	7.02940000E-12	1.28270000E-12	3.70000000E+1	8.92585920E-5
1.48370500E+6	1.57000321E+1	0.00000000E+0	0.00000000E+0	7.55130000E-12	1.37370000E-12	2.50000000E+1	8.90202092E-5
1.48994800E+6	1.57999606E+1	0.00000000E+0	0.00000000E+0	8.05170000E-12	1.45770000E-12	3.50000000E+1	8.90648888E-5
1.49627500E+6	1.59000124E+1	0.00000000E+0	0.00000000E+0	8.55880000E-12	1.54660000E-12	2.50000000E+1	8.91137557E-5
1.50237600E+6	1.60000424E+1	0.00000000E+0	0.00000000E+0	9.05780000E-12	1.63830000E-12	4.10000000E+1	8.91556190E-5
1.50870400E+6	1.61000045E+1	0.00000000E+0	0.00000000E+0	9.57100000E-12	1.72660000E-12	3.70000000E+1	8.92145710E-5
1.51477200E+6	1.62000439E+1	0.00000000E+0	0.00000000E+0	1.01024000E-11	1.81960000E-12	3.90000000E+1	8.92755704E-5
1.52102400E+6	1.62999665E+1	0.00000000E+0	0.00000000E+0	1.06569000E-11	1.91650000E-12	5.90000000E+1	8.94203591E-5
1.52722300E+6	1.64000524E+1	0.00000000E+0	0.00000000E+0	1.12480000E-11	2.02290000E-12	5.30000000E+1	8.93382656E-5
1.53317100E+6	1.64999289E+1	0.00000000E+0	0.00000000E+0	1.18717000E-11	2.13040000E-12	6.80000000E+1	8.93318253E-5
1.53947400E+6	1.66000836E+1	0.00000000E+0	0.00000000E+0	1.25339000E-11	2.24780000E-12	4.70000000E+1	8.96973508E-5
1.54565400E+6	1.66999118E+1	0.00000000E+0	0.00000000E+0	1.32028000E-11	2.36940000E-12	4.40000000E+1	8.94748556E-5
1.55179500E+6	1.68000716E+1	0.00000000E+0	0.00000000E+0	1.39078000E-11	2.48570000E-12	6.40000000E+1	8.94447344E-5
1.55792700E+6	1.68999929E+1	0.00000000E+0	0.00000000E+0	1.46588000E-11	2.61880000E-12	7.70000000E+1	8.93346595E-5
1.56400800E+6	1.70000001E+1	0.00000000E+0	0.00000000E+0	1.54443000E-11	2.76100000E-12	7.10000000E+1	8.95669478E-5
1.57019000E+6	1.70999553E+1	0.00000000E+0	0.00000000E+0	1.63136000E-11	2.91330000E-12	5.80000000E+1	8.97424447E-5
1.57706400E+6	1.71999083E+1	0.00000000E+0	0.00000000E+0	1.72334000E-11	3.08910000E-12	9.20000000E+1	8.92523872E-5
1.58300500E+6	1.73001318E+1	0.00000000E+0	0.00000000E+0	1.82634000E-11	3.26940000E-12	7.10000000E+1	8.95951229E-5
1.58917100E+6	1.73999714E+1	0.00000000E+0	0.00000000E+0	1.93945000E-11	3.47640000E-12	9.30000000E+1	8.95874398E-5
1.59511200E+6	1.74999941E+1	0.00000000E+0	0.00000000E+0	2.06589000E-11	3.69850000E-12	1.01000000E+2	8.92258780E-5
1.60125300E+6	1.75999836E+1	0.00000000E+0	0.00000000E+0	2.20828000E-11	3.96520000E-12	9.80000000E+1	8.93414753E-5
1.60731800E+6	1.76999959E+1	0.00000000E+0	0.00000000E+0	2.36809000E-11	4.25660000E-12	1.05000000E+2	8.93294888E-5
1.61323200E+6	1.77999603E+1	0.00000000E+0	0.00000000E+0	2.54839000E-11	4.58240000E-12	1.23000000E+2	8.93174129E-5
1.61940200E+6	1.79000392E+1	0.00000000E+0	0.00000000E+0	2.75332000E-11	4.96320000E-12	1.14000000E+2	8.95982342E-5
1.62552100E+6	1.79999524E+1	0.00000000E+0	0.00000000E+0	2.98358000E-11	5.38460000E-12	1.21000000E+2	8.94565480E-5
1.63141000E+6	1.81000503E+1	0.00000000E+0	0.00000000E+0	3.24048000E-11	5.86090000E-12	1.36000000E+2	8.93924313E-5
1.63760000E+6	1.81999684E+1	0.00000000E+0	0.00000000E+0	3.52529000E-11	6.38640000E-12	1.62000000E+2	8.91820507E-5
1.64354800E+6	1.83000380E+1	0.00000000E+0	0.00000000E+0	3.83596000E-11	6.95950000E-12	1.70000000E+2	8.91025024E-5
1.64973400E+6	1.83999692E+1	0.00000000E+0	0.00000000E+0	4.16787000E-11	7.57670000E-12	1.88000000E+2	8.92262595E-5
1.65596200E+6	1.84999909E+1	0.00000000E+0	0.00000000E+0	4.52130000E-11	8.24290000E-12	1.97000000E+2	8.94899713E-5
1.66198400E+6	1.86000034E+1	0.00000000E+0	0.00000000E+0	4.89520000E-11	8.93670000E-12	1.95000000E+2	8.92158108E-5
1.66817900E+6	1.87000172E+1	0.00000000E+0	0.00000000E+0	5.28874000E-11	9.68130000E-12	2.23000000E+2	8.96349597E-5
1.67443700E+6	1.87999572E+1	0.00000000E+0	0.00000000E+0	5.70040000E-11	1.04648000E-11	2.50000000E+2	8.94906598E-5
1.68043600E+6	1.88999787E+1	0.00000000E+0	0.00000000E+0	6.13238000E-11	1.12786000E-11	2.34000000E+2	8.91963320E-5
1.68656700E+6	1.90000672E+1	0.00000000E+0	0.00000000E+0	6.58915000E-11	1.21522000E-11	2.68000000E+2	8.94820678E-5
1.69265000E+6	1.90999097E+1	0.00000000E+0	0.00000000E+0	7.07436000E-11	1.30675000E-11	2.71000000E+2	8.92176049E-5
1.69901100E+6	1.91999937E+1	0.00000000E+0	0.00000000E+0	7.59695000E-11	1.40780000E-11	2.76000000E+2	8.92084258E-5
1.70524400E+6	1.93000059E+1	0.00000000E+0	0.00000000E+0	8.16610000E-11	1.51704000E-11	3.38000000E+2	8.95970422E-5
1.71122500E+6	1.93999891E+1	0.00000000E+0	0.00000000E+0	8.78677000E-11	1.63515000E-11	3.29000000E+2	8.90586155E-5
1.71740200E+6	1.94999881E+1	0.00000000E+0	0.00000000E+0	9.45876000E-11	1.76442000E-11	3.51000000E+2	8.90040474E-5
1.72371900E+6	1.95999875E+1	0.00000000E+0	0.00000000E+0	1.01753700E-10	1.90193000E-11	3.98000000E+2	8.92001050E-5
1.72964100E+6	1.96999396E+1	0.00000000E+0	0.00000000E+0	1.09347200E-10	2.04633000E-11	4.09000000E+2	8.92483579E-5
1.73584500E+6	1.98000193E+1	0.00000000E+0	0.00000000E+0	1.17193700E-10	2.19911000E-11	4.34000000E+2	8.90676843E-5
1.74189800E+6	1.98999561E+1	0.00000000E+0	0.00000000E+0	1.25157000E-10	2.35240000E-11	4.52000000E+2	8.96062690E-5
1.74793200E+6	2.00000243E+1	0.00000000E+0	0.00000000E+0	1.33449100E-10	2.51383000E-11	4.44000000E+2	8.94249874E-5
1.75384400E+6	2.00998824E+1	0.00000000E+0	0.00000000E+0	1.41590000E-10	2.67372000E-11	4.81000000E+2	8.93646377E-5
1.75979600E+6	2.02002426E+1	0.00000000E+0	0.00000000E+0	1.49385100E-10	2.82882000E-11	5.16000000E+2	8.92686503E-5
1.76569600E+6	2.02998926E+1	0.00000000E+0	0.00000000E+0	1.56989600E-10	2.97994000E-11	4.80000000E+2	8.96819877E-5
1.77160400E+6	2.03999185E+1	0.00000000E+0	0.00000000E+0	1.64459600E-10	3.13095000E-11	5.35000000E+2	8.94002961E-5
1.77757700E+6	2.05002139E+1	0.00000000E+0	0.00000000E+0	1.71796900E-10	3.28036000E-11	5.25000000E+2	8.96331030E-5
1.78353900E+6	2.05999398E+1	0.00000000E+0	0.00000000E+0	1.79008200E-10	3.42719000E-11	5.54000000E+2	8.92867791E-5
1.78946900E+6	2.06999755E+1	0.00000000E+0	0.00000000E+0	1.86139200E-10	3.57337000E-11	5.24000000E+2	8.99202096E-5
1.79534500E+6	2.08000329E+1	0.00000000E+0	0.00000000E+0	1.93220100E-10	3.71821000E-11	5.52000000E+2	8.94393700E-5
1.80122200E+6	2.09000629E+1	0.00000000E+0	0.00000000E+0	2.00151100E-10	3.86221000E-11	5.81000000E+2	8.96117913E-5
1.80707200E+6	2.09999785E+1	0.00000000E+0	0.00000000E+0	2.06961300E-10	4.00347000E-11	5.38000000E+2	8.94180077E-5
1.81292600E+6	2.11000901E+1	0.00000000E+0	0.00000000E+0	9.90000000E+37	4.14257000E-11	6.04000000E+2	8.99231779E-5
1.81886100E+6	2.11999487E+1	0.00000000E+0	0.00000000E+0	9.90000000E+37	4.27775000E-11	5.36000000E+2	8.93931823E-5
1.82481000E+6	2.13000897E+1	0.00000000E+0	0.00000000E+0	9.90000000E+37	4.40873000E-11	5.59000000E+2	8.91561346E-5
1.83061700E+6	2.13999463E+1	0.00000000E+0	0.00000000E+0	9.90000000E+37	4.53660000E-11	6.20000000E+2	8.95946282E-5
1.83656700E+6	2.14999882E+1	0.00000000E+0	0.00000000E+0	9.90000000E+37	4.66225000E-11	6.35000000E+2	8.94015627E-5
1.84251500E+6	2.16000167E+1	0.00000000E+0	0.00000000E+0	9.90000000E+37	4.78435000E-11	5.27000000E+2	8.92803746E-5
1.84845200E+6	2.16999798E+1	0.00000000E+0	0.00000000E+0	9.90000000E+37	4.90390000E-11	6.06000000E+2	8.96531480E-5
1.85424000E+6	2.18000181E+1	0.00000000E+0	0.00000000E+0	9.90000000E+37	5.01837000E-11	6.07000000E+2	8.93418299E-5
1.86008600E+6	2.19000424E+1	0.00000000E+0	0.00000000E+0	9.90000000E+37	5.12829000E-11	5.63000000E+2	8.95539271E-5
1.86591500E+6	2.20000001E+1	0.00000000E+0	0.00000000E+0	9.90000000E+37	5.23311000E-11	5.66000000E+2	8.94747334E-5
1.87175000E+6	2.21000364E+1	0.00000000E+0	0.00000000E+0	9.90000000E+37	5.33009000E-11	5.31000000E+2	8.95586746E-5
1.87834600E+6	2.22000200E+1	0.00000000E+0	0.00000000E+0	9.90000000E+37	5.41803000E-11	5.88000000E+2	8.90132772E-5
1.88420000E+6	2.23000183E+1	0.00000000E+0	0.00000000E+0	9.90000000E+37	5.49521000E-11	5.67000000E+2	8.91734647E-5
1.89010700E+6	2.24000606E+1	0.00000000E+0	0.00000000E+0	9.90000000E+37	5.55899000E-11	5.11000000E+2	8.95157712E-5
1.89592700E+6	2.24999704E+1	0.00000000E+0	0.00000000E+0	9.90000000E+37	5.60750000E-11	5.36000000E+2	8.95121771E-5
1.90171100E+6	2.25999406E+1	0.00000000E+0	0.00000000E+0	9.90000000E+37	5.63754000E-11	5.40000000E+2	8.95795780E-5
1.90750800E+6	2.27001295E+1	0.00000000E+0	0.00000000E+0	9.90000000E+37	5.64524000E-11	5.21000000E+2	8.92394649E-5
1.91326600E+6	2.28000212E+1	0.00000000E+0	0.00000000E+0	9.90000000E+37	5.62748000E-11	5.76000000E+2	8.92093169E-5
1.91901100E+6	2.28999817E+1	0.00000000E+0	0.00000000E+0	9.90000000E+37	5.57673000E-11	5.22000000E+2	8.93920200E-5
1.92473400E+6	2.30000877E+1	0.00000000E+0	0.00000000E+0	9.90000000E+37	5.48256000E-11	4.95000000E+2	8.94538301E-5
1.93045600E+6	2.30999827E+1	0.00000000E+0	0.00000000E+0	9.90000000E+37	5.33090000E-11	5.00000000E+2	8.94650894E-5
1.93618000E+6	2.32000015E+1	0.00000000E+0	0.00000000E+0	9.90000000E+37	5.08600000E-11	4.74000000E+2	8.90721070E-5
1.94178500E+6	2.32998699E+1	0.00000000E+0	0.00000000E+0	9.90000000E+37	4.68226000E-11	4.15000000E+2	8.91259240E-5
1.94751400E+6	2.34001544E+1	0.00000000E+0	0.00000000E+0	1.99762400E-10	3.94444000E-11	3.73000000E+2	8.92862695E-5
1.95325200E+6	2.35000422E+1	0.00000000E+0	0.00000000E+0	1.30842000E-10	2.58963000E-11	2.45000000E+2	8.94462424E-5
1.95898300E+6	2.36000128E+1	0.00000000E+0	0.00000000E+0	6.25106000E-11	1.20689000E-11	1.19000000E+2	8.91813235E-5
1.96461600E+6	2.36998738E+1	0.00000000E+0	0.00000000E+0	3.56924000E-11	6.57010000E-12	8.30000000E+1	8.94752430E-5
1.97040700E+6	2.38001668E+1	0.00000000E+0	0.00000000E+0	2.91628000E-11	5.20720000E-12	5.20000000E+1	8.96602797E-5
1.97604900E+6	2.38997720E+1	0.00000000E+0	0.00000000E+0	2.76555000E-11	4.92470000E-12	5.90000000E+1	8.97445517E-5
1.98160900E+6	2.39999319E+1	0.00000000E+0	0.00000000E+0	2.73375000E-11	4.88380000E-12	5.70000000E+1	8.97160935E-5
1.98722900E+6	2.41001756E+1	0.00000000E+0	0.00000000E+0	2.72768000E-11	4.89980000E-12	6.20000000E+1	8.96117854E-5
1.99280200E+6	2.42000637E+1	0.00000000E+0	0.00000000E+0	2.72167000E-11	4.91320000E-12	3.60000000E+1	8.94856798E-5
1.99836000E+6	2.42997700E+1	0.00000000E+0	0.00000000E+0	2.69969000E-11	4.89210000E-12	5.00000000E+1	8.94681471E-5
2.00401000E+6	2.44003013E+1	0.00000000E+0	0.00000000E+0	2.62604000E-11	4.76760000E-12	4.30000000E+1	8.95157504E-5
2.00957800E+6	2.44999021E+1	0.00000000E+0	0.00000000E+0	2.40755000E-11	4.34970000E-12	4.50000000E+1	8.94805270E-5
2.01530900E+6	2.46001710E+1	0.00000000E+0	0.00000000E+0	1.91640000E-11	3.37340000E-12	3.20000000E+1	8.93027561E-5
2.02101200E+6	2.47000176E+1	0.00000000E+0	0.00000000E+0	1.46498000E-11	2.46980000E-12	2.90000000E+1	8.93174218E-5
2.02661200E+6	2.47999744E+1	0.00000000E+0	0.00000000E+0	1.28855000E-11	2.11280000E-12	2.80000000E+1	8.94042777E-5
2.03223700E+6	2.48999836E+1	0.00000000E+0	0.00000000E+0	1.22584000E-11	1.99600000E-12	2.50000000E+1	8.93697309E-5
2.03799000E+6	2.50000366E+1	0.00000000E+0	0.00000000E+0	1.19131000E-11	1.93920000E-12	1.80000000E+1	8.95438122E-5
