G:\BEAR_storage\User_Experiments\20220317_arneodo\file(1)_Region 2__0079.txt
Ring Energy (GeV): 2
Lifetime (hours): 15.3642
Scan beginning: 3/21/2022	4:03:41 PM
Ring current (mA): 308.61
Source position: x (mm): 0.005 x' (mrad): 0.001 y (mm): 0 y' (mrad): 0.002
Scan end: 3/21/2022	4:09:00 PM
Ring current (mA): 309.35
Source position: x (mm): 0.006 x' (mrad): 0.001 y (mm): 0 y' (mrad): 0.002

SCAN TYPE: PHOTON ENERGY VS VAR_1 VS VAR_2

FILE INFO: FILE INFO:

SCAN PARAMETERS
waiting time (ms): 1000
Number of scans: 1
Current scan number: 1
DARK OFF 
PREDARK OFF 

SCAN PARAMETERS
Regions configuration: 
number of regions: 6
Mirror grating scan: on
Timed acquisition: off
Region 1:
Initial energy (eV): 40.000000
Final energy (eV): 72.000000
Delta energy (eV): 1.000000
Deviation angle choice: Higher order rejection
Deviation angle (°): NaN
Al filter
G1200 channel
range keithley B 20 nA
range keithley C 200 nA
range keithley A 20 nA
Var_1: PsiC 0.000000
Var_2: PhiM0.000000
Bias CEM (V): 0.000000
Bias Keithley B (V): -30.000000
Name region: 
Region 2:
Initial energy (eV): 70.000000
Final energy (eV): 102.000000
Delta energy (eV): 1.000000
Deviation angle choice: Higher order rejection
Deviation angle (°): NaN
Si filter
G1200 channel
range keithley B 20 nA
range keithley C 200 nA
range keithley A 20 nA
Var_1: PsiC 0.000000
Var_2: PhiM0.000000
Bias CEM (V): 0.000000
Bias Keithley B (V): -30.000000
Name region: 
Region 3:
Initial energy (eV): 98.000000
Final energy (eV): 260.000000
Delta energy (eV): 1.000000
Deviation angle choice: Higher order rejection
Deviation angle (°): NaN
Full Beam
G1200 channel
range keithley B 20 nA
range keithley C 200 nA
range keithley A 200 nA
Var_1: PsiC 0.000000
Var_2: PhiM0.000000
Bias CEM (V): 0.000000
Bias Keithley B (V): -30.000000
Name region: 
Region 4:
Initial energy (eV): 255.000000
Final energy (eV): 320.000000
Delta energy (eV): 1.000000
Deviation angle choice: Higher order rejection
Deviation angle (°): NaN
filter Ag 0.6 um
G1200 channel
range keithley B 200 pA
range keithley C 200 nA
range keithley A 200 pA
Var_1: PsiC 0.000000
Var_2: PhiM0.000000
Bias CEM (V): 0.000000
Bias Keithley B (V): -30.000000
Name region: 
Region 5:
Initial energy (eV): 315.000000
Final energy (eV): 1200.000000
Delta energy (eV): 5.000000
Deviation angle choice: Higher order rejection
Deviation angle (°): NaN
Full Beam
G1200 channel
range keithley B 20 nA
range keithley C 200 nA
range keithley A 20 nA
Var_1: PsiC 0.000000
Var_2: PhiM0.000000
Bias CEM (V): 0.000000
Bias Keithley B (V): -30.000000
Name region: 
Region 6:
Initial energy (eV): 1190.000000
Final energy (eV): 1500.000000
Delta energy (eV): 5.000000
Deviation angle choice: Higher order rejection
Deviation angle (°): NaN
filter Ag 0.6 um
G1200 channel
range keithley B 200 pA
range keithley C 200 nA
range keithley A 200 pA
Var_1: PsiC 0.000000
Var_2: PhiM0.000000
Bias CEM (V): 0.000000
Bias Keithley B (V): -30.000000
Name region: 

BEAR MONOCHROMATOR CONFIGURATION: 
Current Grating Position:     160137.80
Current Mirror Position: 298443.6
Current Grating: G1200
P2 phiz position:  0.0000
Mono axis position: 25.0000
Current Photon Energy (eV): 1500.015
Current Deviation Angle: 175.800
Vertical Exit Slits (um): 100.000
Exit slit y axis position: 1.3625
Horizontal Exit Slits (um):  889.156
Exit slit z axis position: 1.9229
Mitutoyo position (mm): 

Dose on sample (mJ/cm^2): NaN

ENERGY CALIBRATION:
offset grating G1200: yes
Delta 0 order G1200:  -1100.0
offset grating G1800: not
Delta 0 order G1800:  0.0
offset grating GNIM: not
Delta 0 order GNIM:  0.0
ZERO ORDER POSITIONS:
Grating G1200: Mirror position:  4938.0
Grating position: -105355.0
Grating G1800: 
Mirror position:  4938.0
Grating position: -106345.0
Grating GNIM: 
Mirror position:  10000.0
Grating position: 227300.0

Initial filter: Ag filter 0.6 um

EXPERIMENTAL CHAMBER CONFIGURATION: 
PsiC (deg):   -0.000186
Phi Analyzer (degrees): 89.993255
Theta Manipulator (degrees): -44.000040
Theta Analyzer (degrees): -135.001468
PhiM (degrees): -0.003077
XM (mm): -11.999075
YM (mm): 9.947225
ZM (mm): (Warning: for kinetic energy scans, 
this parameter is given in the scan settings) 
-6.001413
TiltM (°): 0.000138

ELECTRON ANALYZER CONFIGURATION: 
Current Kinetik energy (eV): 35.0
Mode: DE = COST
Pass Energy (eV):  100.000
CEM: ON
Bias Front-Back CEM (V): 3499.698
Bias Back-Collector CEM (V): 100.874
Bias Retard-Front CEM: 100.104COIL VALUES
Ix (amps):2.820
Iy (amps): 6.789
Iz (amps): 37.403

POLARIZATION SELECTOR CONFIGURATION:
Psi1 (rad): -0.001665535
Psi2 (rad): 0.001417093
Z min position (mm): 46.599650
DZ position (mm): 18.599100
Zmin 0 (mm): 65.700000
DZ0 (mm): 54.000000

BEAM SELECTOR CONFIGURATION:
Zmin position (mm): NaN
DZ position (mm): NaN
Y+ position (mm): NaN
Y- position (mm): NaN

CHANNEL ELECTRON MULTIPLIER CONFIGURATION:
CEM configured: OFF
Bias CEM: 0.000000

FLUORESCENCE DETECTOR CONFIGURATION:
Not configured

LUMINESCENCE MONOCHROMATOR CONFIGURATION:
Optical fiber position (mm): 0.000000
Optical fiber Switch inside: ON
Optical fiber Switch outside: ON
Monochromator wavelength (A): 0.000000
Limit Switches: ON

I0 MONITOR PARAMETERS:
I0 detector position(mm): NaN
Lower switch: OFF
Upper switch: OFF
Valve status:unread

PRESSURE PARAMETERS:
Monitor chamber pressure (mbar): 9.13e-10
Experimental chamber pressure -ION GAUGE-(mbar): 0.000000E+0

XMCD PARAMETERS:
Xmcd OFF
Xmcd Direction -
Xmcd current (A): 0.000000

Gated scan off

Instrument 1: AMMETER KEITHLEY 6517A B
Measure type: Current
range type: set range value
range value (ampere):  200 pA
Integration time:  set NPLC value
NPLC value: 10.000
Digital filter count: 2
SAMPLE BIAS (V): -30.000
Vsource: ON
Output Voltage value: 30.000
Vsource range: 1000 V

Range Keithley B changed to 20 nA

Range Keithley B changed to 200 pA

Range Keithley B changed to 20 nA

Range Keithley B changed to 200 pA

Keithley B Bias (V) changed to: 0.000000

Range Keithley B changed to 20 nA

Keithley B Bias (V) changed to: -30.000000

Range Keithley B changed to 200 pA

Range Keithley B changed to 20 nA

Range Keithley B changed to 200 pA

Range Keithley B changed to 20 nA

Instrument 2: AMMETER KEITHLEY 6517A A
Measure type: Current
range type: set range value
range value (ampere):  200 pA
Integration time:  set NPLC value
NPLC value: 10.000
Digital filter count: 2
Vsource: OFF
Output Voltage value: -0.000
Vsource range: 100 V
Trigger source: bus

Range Keithley A changed to 20 nA

Range Keithley A changed to 200 nA

Range Keithley A changed to 200 pA

Range Keithley A changed to 20 nA

Range Keithley A changed to 200 pA

Range Keithley A changed to 20 nA

Range Keithley A changed to 200 nA

Range Keithley A changed to 200 pA

Range Keithley A changed to 20 nA

Range Keithley A changed to 200 pA

Range Keithley A changed to 20 nA

Range Keithley A changed to 200 nA

Instrument 3: COUNTER ORTEC 996Integration time (sec): 1.000


Range Keithley C changed to 200 nA


Range Keithley C changed to 2 uA


Range Keithley C changed to 200 nA


________________________________________________________________________________

RelativeTime (msec)	Photon Energy	Var_1	Var_2	INSTR_1_Sample with Bias _(ampere ) 	INSTR_2_Monitor IM_(ampere)  	INSTR_3_Ortec 996 counts_(counts)	I_BPM_sum (Amps)	
________________________________________________________________________________

1.70994000E+5	7.00000097E+1	0.00000000E+0	0.00000000E+0	3.79000000E-12	2.45560000E-10	9.40000000E+1	8.92335700E-5
1.76147000E+5	7.09992392E+1	0.00000000E+0	0.00000000E+0	4.01000000E-12	2.64100000E-10	1.20000000E+2	8.94929069E-5
1.80559000E+5	7.20001239E+1	0.00000000E+0	0.00000000E+0	3.50000000E-12	2.26360000E-10	9.20000000E+1	8.91079323E-5
1.84993000E+5	7.30000065E+1	0.00000000E+0	0.00000000E+0	4.55000000E-12	2.91380000E-10	1.03000000E+2	8.93407988E-5
1.89324000E+5	7.39997691E+1	0.00000000E+0	0.00000000E+0	5.20000000E-12	3.31640000E-10	1.16000000E+2	8.94845026E-5
1.93625000E+5	7.50001297E+1	0.00000000E+0	0.00000000E+0	5.07000000E-12	3.34670000E-10	1.36000000E+2	8.92673837E-5
1.97910000E+5	7.60002395E+1	0.00000000E+0	0.00000000E+0	5.79000000E-12	3.83190000E-10	1.56000000E+2	8.93687921E-5
2.02191000E+5	7.70001504E+1	0.00000000E+0	0.00000000E+0	6.35000000E-12	4.30150000E-10	1.60000000E+2	8.91058432E-5
2.06540000E+5	7.80002186E+1	0.00000000E+0	0.00000000E+0	7.01000000E-12	4.66970000E-10	1.79000000E+2	8.93330353E-5
2.10829000E+5	7.90001563E+1	0.00000000E+0	0.00000000E+0	7.55000000E-12	5.07590000E-10	1.90000000E+2	8.93022197E-5
2.15109000E+5	7.99999680E+1	0.00000000E+0	0.00000000E+0	8.13000000E-12	5.49240000E-10	2.15000000E+2	8.91357767E-5
2.19422000E+5	8.10001560E+1	0.00000000E+0	0.00000000E+0	8.74000000E-12	5.89630000E-10	2.31000000E+2	8.92216819E-5
2.23735000E+5	8.19997105E+1	0.00000000E+0	0.00000000E+0	9.28000000E-12	6.29290000E-10	2.48000000E+2	8.92281788E-5
2.27875000E+5	8.29996647E+1	0.00000000E+0	0.00000000E+0	9.80000000E-12	6.75150000E-10	2.28000000E+2	8.89605092E-5
2.32160000E+5	8.40003859E+1	0.00000000E+0	0.00000000E+0	1.05600000E-11	7.27220000E-10	2.78000000E+2	8.92249393E-5
2.36304000E+5	8.50001831E+1	0.00000000E+0	0.00000000E+0	1.12800000E-11	7.80890000E-10	3.06000000E+2	8.92305004E-5
2.40470000E+5	8.60000127E+1	0.00000000E+0	0.00000000E+0	1.19400000E-11	8.36820000E-10	3.16000000E+2	8.93819081E-5
2.44664000E+5	8.69999222E+1	0.00000000E+0	0.00000000E+0	1.29100000E-11	8.96610000E-10	3.27000000E+2	8.91531753E-5
2.49599000E+5	8.80000031E+1	0.00000000E+0	0.00000000E+0	1.35300000E-11	9.56060000E-10	3.11000000E+2	8.94428211E-5
2.53761000E+5	8.90002366E+1	0.00000000E+0	0.00000000E+0	1.44800000E-11	1.01829000E-9	3.70000000E+2	8.94376921E-5
2.57903000E+5	8.99998405E+1	0.00000000E+0	0.00000000E+0	1.52800000E-11	1.09340000E-9	3.88000000E+2	8.90098588E-5
2.62068000E+5	9.10001188E+1	0.00000000E+0	0.00000000E+0	1.63200000E-11	1.17638000E-9	3.91000000E+2	8.89991390E-5
2.66230000E+5	9.20001929E+1	0.00000000E+0	0.00000000E+0	1.72800000E-11	1.25667000E-9	4.38000000E+2	8.91523557E-5
2.70376000E+5	9.30001604E+1	0.00000000E+0	0.00000000E+0	1.82800000E-11	1.33759000E-9	4.87000000E+2	8.89652209E-5
2.74516000E+5	9.40003347E+1	0.00000000E+0	0.00000000E+0	1.92100000E-11	1.43036000E-9	4.82000000E+2	8.89622943E-5
2.78534000E+5	9.49993089E+1	0.00000000E+0	0.00000000E+0	2.03400000E-11	1.52291000E-9	4.72000000E+2	8.93577921E-5
2.82586000E+5	9.59997635E+1	0.00000000E+0	0.00000000E+0	2.13500000E-11	1.60574000E-9	5.73000000E+2	8.92911332E-5
2.86586000E+5	9.70003730E+1	0.00000000E+0	0.00000000E+0	2.22400000E-11	1.68496000E-9	5.87000000E+2	8.95103442E-5
2.90623000E+5	9.80001029E+1	0.00000000E+0	0.00000000E+0	2.35400000E-11	1.76396000E-9	6.01000000E+2	8.94798564E-5
2.94656000E+5	9.90003715E+1	0.00000000E+0	0.00000000E+0	2.43100000E-11	1.83570000E-9	5.82000000E+2	8.92246979E-5
2.98669000E+5	9.99997864E+1	0.00000000E+0	0.00000000E+0	2.51800000E-11	1.88703000E-9	6.20000000E+2	8.94822645E-5
3.02757000E+5	1.00999882E+2	0.00000000E+0	0.00000000E+0	2.31500000E-11	1.79085000E-9	5.68000000E+2	8.93723147E-5
3.06802000E+5	1.02000703E+2	0.00000000E+0	0.00000000E+0	5.30000000E-13	2.82300000E-11	2.10000000E+1	8.94994842E-5
