G:\BEAR_storage\User_Experiments\20220317_arneodo\file(1)_Region 4__0082.txt
Ring Energy (GeV): 2
Lifetime (hours): 0
Scan beginning: 3/21/2022	9:34:35 PM
Ring current (mA): 309.4
Source position: x (mm): 0.007 x' (mrad): 0.001 y (mm): -0.001 y' (mrad): -0.001
Scan end: 3/21/2022	9:58:33 PM
Ring current (mA): 309.34
Source position: x (mm): 0.007 x' (mrad): 0 y (mm): -0 y' (mrad): -0.001

SCAN TYPE: PHOTON ENERGY VS VAR_1 VS VAR_2

FILE INFO: FILE INFO:

SCAN PARAMETERS
waiting time (ms): 1000
Number of scans: 1
Current scan number: 1
DARK OFF 
PREDARK OFF 

SCAN PARAMETERS
Regions configuration: 
number of regions: 7
Mirror grating scan: on
Timed acquisition: off
Region 1:
Initial energy (eV): 3.000000
Final energy (eV): 4.500000
Delta energy (eV): 0.100000
Deviation angle choice: Degrees: 
Deviation angle (°): NaN
B270 window
GNIM channel
range keithley B 200 pA
range keithley C 200 pA
range keithley A 200 pA
Var_1: PsiC 0.000000
Var_2: PhiM0.000000
Bias CEM (V): 0.000000
Bias Keithley B (V): -30.000000
Name region: 
Region 2:
Initial energy (eV): 4.000000
Final energy (eV): 8.000000
Delta energy (eV): 0.100000
Deviation angle choice: Degrees: 
Deviation angle (°): NaN
SiO2 window
GNIM channel
range keithley B 200 pA
range keithley C 200 pA
range keithley A 200 pA
Var_1: PsiC 0.000000
Var_2: PhiM0.000000
Bias CEM (V): 0.000000
Bias Keithley B (V): -30.000000
Name region: 
Region 3:
Initial energy (eV): 7.000000
Final energy (eV): 12.000000
Delta energy (eV): 0.100000
Deviation angle choice: Degrees: 
Deviation angle (°): NaN
filter LiF window
GNIM channel
range keithley B 200 pA
range keithley C 200 pA
range keithley A 200 pA
Var_1: PsiC 0.000000
Var_2: PhiM0.000000
Bias CEM (V): 0.000000
Bias Keithley B (V): -30.000000
Name region: 
Region 4:
Initial energy (eV): 11.000000
Final energy (eV): 18.000000
Delta energy (eV): 0.100000
Deviation angle choice: Degrees: 
Deviation angle (°): NaN
In filter
GNIM channel
range keithley B 200 pA
range keithley C 200 pA
range keithley A 200 pA
Var_1: PsiC 0.000000
Var_2: PhiM0.000000
Bias CEM (V): 0.000000
Bias Keithley B (V): -30.000000
Name region: 
Region 5:
Initial energy (eV): 15.000000
Final energy (eV): 25.000000
Delta energy (eV): 0.100000
Deviation angle choice: Degrees: 
Deviation angle (°): NaN
Sn filter
GNIM channel
range keithley B 200 pA
range keithley C 200 pA
range keithley A 200 pA
Var_1: PsiC 0.000000
Var_2: PhiM0.000000
Bias CEM (V): 0.000000
Bias Keithley B (V): -30.000000
Name region: 
Region 6:
Initial energy (eV): 23.000000
Final energy (eV): 45.000000
Delta energy (eV): 0.100000
Deviation angle choice: Degrees: 
Deviation angle (°): NaN
Full Beam
GNIM channel
range keithley B 20 nA
range keithley C 200 pA
range keithley A 20 nA
Var_1: PsiC 0.000000
Var_2: PhiM0.000000
Bias CEM (V): 0.000000
Bias Keithley B (V): -30.000000
Name region: 
Region 7:
Initial energy (eV): 23.000000
Final energy (eV): 45.000000
Delta energy (eV): 0.100000
Deviation angle choice: Degrees: 
Deviation angle (°): NaN
Al filter
GNIM channel
range keithley B 20 nA
range keithley C 200 pA
range keithley A 20 nA
Var_1: PsiC 0.000000
Var_2: PhiM0.000000
Bias CEM (V): 0.000000
Bias Keithley B (V): -30.000000
Name region: 

BEAR MONOCHROMATOR CONFIGURATION: 
Current Grating Position:     200056.70
Current Mirror Position: 9999.9
Current Grating: GNIM
P2 phiz position:  -0.0195
Mono axis position: 73.5000
Current Photon Energy (eV): 45.000
Current Deviation Angle: 29.905
Vertical Exit Slits (um): 100.000
Exit slit y axis position: 1.3625
Horizontal Exit Slits (um):  889.156
Exit slit z axis position: 1.9229
Mitutoyo position (mm): 

Dose on sample (mJ/cm^2): NaN

ENERGY CALIBRATION:
offset grating G1200: yes
Delta 0 order G1200:  -1100.0
offset grating G1800: not
Delta 0 order G1800:  0.0
offset grating GNIM: not
Delta 0 order GNIM:  0.0
ZERO ORDER POSITIONS:
Grating G1200: Mirror position:  4938.0
Grating position: -105355.0
Grating G1800: 
Mirror position:  4938.0
Grating position: -106345.0
Grating GNIM: 
Mirror position:  10000.0
Grating position: 227300.0

Initial filter: Al filter

EXPERIMENTAL CHAMBER CONFIGURATION: 
PsiC (deg):   -0.000186
Phi Analyzer (degrees): 89.993255
Theta Manipulator (degrees): -44.000040
Theta Analyzer (degrees): -135.001468
PhiM (degrees): -0.003077
XM (mm): -4.499087
YM (mm): 22.946963
ZM (mm): (Warning: for kinetic energy scans, 
this parameter is given in the scan settings) 
-14.001363
TiltM (°): 0.000138

ELECTRON ANALYZER CONFIGURATION: 
Current Kinetik energy (eV): 35.0
Mode: DE = COST
Pass Energy (eV):  100.000
CEM: ON
Bias Front-Back CEM (V): 3499.698
Bias Back-Collector CEM (V): 100.874
Bias Retard-Front CEM: 100.104COIL VALUES
Ix (amps):2.820
Iy (amps): 6.789
Iz (amps): 37.403

POLARIZATION SELECTOR CONFIGURATION:
Psi1 (rad): -0.001665535
Psi2 (rad): 0.001417093
Z min position (mm): 46.599650
DZ position (mm): 18.599100
Zmin 0 (mm): 65.700000
DZ0 (mm): 54.000000

BEAM SELECTOR CONFIGURATION:
Zmin position (mm): NaN
DZ position (mm): NaN
Y+ position (mm): NaN
Y- position (mm): NaN

CHANNEL ELECTRON MULTIPLIER CONFIGURATION:
CEM configured: OFF
Bias CEM: 0.000000

FLUORESCENCE DETECTOR CONFIGURATION:
Not configured

LUMINESCENCE MONOCHROMATOR CONFIGURATION:
Optical fiber position (mm): 0.000000
Optical fiber Switch inside: ON
Optical fiber Switch outside: ON
Monochromator wavelength (A): 0.000000
Limit Switches: ON

I0 MONITOR PARAMETERS:
I0 detector position(mm): NaN
Lower switch: OFF
Upper switch: OFF
Valve status:unread

PRESSURE PARAMETERS:
Monitor chamber pressure (mbar): 9.041e-10
Experimental chamber pressure -ION GAUGE-(mbar): 0.000000E+0

XMCD PARAMETERS:
Xmcd OFF
Xmcd Direction -
Xmcd current (A): 0.000000

Gated scan off

Instrument 1: AMMETER KEITHLEY 6517A B
Measure type: Current
range type: set range value
range value (ampere):  200 pA
Integration time:  set NPLC value
NPLC value: 10.000
Digital filter count: 2
SAMPLE BIAS (V): -30.000
Vsource: ON
Output Voltage value: 30.000
Vsource range: 1000 V

Range Keithley B changed to 20 nA

Range Keithley B changed to 200 pA

Range Keithley B changed to 20 nA

Range Keithley B changed to 200 pA

Keithley B Bias (V) changed to: 0.000000

Range Keithley B changed to 20 nA

Keithley B Bias (V) changed to: -30.000000

Range Keithley B changed to 200 pA

Range Keithley B changed to 20 nA

Range Keithley B changed to 200 pA

Range Keithley B changed to 20 nA

Range Keithley B changed to 200 pA

Range Keithley B changed to 20 nA

Range Keithley B changed to 200 pA

Keithley B Bias (V) changed to: 0.000000

Keithley B Bias (V) changed to: -30.000000

Range Keithley B changed to 20 nA

Range Keithley B changed to 200 pA

Instrument 2: AMMETER KEITHLEY 6517A A
Measure type: Current
range type: set range value
range value (ampere):  200 pA
Integration time:  set NPLC value
NPLC value: 10.000
Digital filter count: 2
Vsource: OFF
Output Voltage value: -0.000
Vsource range: 100 V
Trigger source: bus

Range Keithley A changed to 20 nA

Range Keithley A changed to 200 nA

Range Keithley A changed to 200 pA

Range Keithley A changed to 20 nA

Range Keithley A changed to 200 pA

Range Keithley A changed to 20 nA

Range Keithley A changed to 200 nA

Range Keithley A changed to 200 pA

Range Keithley A changed to 20 nA

Range Keithley A changed to 200 pA

Range Keithley A changed to 20 nA

Range Keithley A changed to 200 nA

Range Keithley A changed to 200 pA

Range Keithley A changed to 20 nA

Range Keithley A changed to 200 pA

Range Keithley A changed to 20 nA

Range Keithley A changed to 200 pA

Range Keithley A changed to 20 nA

Range Keithley A changed to 200 pA

Instrument 3: COUNTER ORTEC 996Integration time (sec): 1.000


Range Keithley C changed to 200 nA


Range Keithley C changed to 2 uA


Range Keithley C changed to 200 nA


Range Keithley C changed to 2 uA


Range Keithley C changed to 200 pA


________________________________________________________________________________

RelativeTime (msec)	Photon Energy	Var_1	Var_2	INSTR_1_Sample with Bias _(ampere ) 	INSTR_2_Monitor IM_(ampere)  	INSTR_3_Ortec 996 counts_(counts)	I_BPM_sum (Amps)	
________________________________________________________________________________

9.68034000E+5	1.10000831E+1	0.00000000E+0	0.00000000E+0	3.95100000E-13	8.31000000E-14	0.00000000E+0	8.96250116E-5
9.75581000E+5	1.10999032E+1	0.00000000E+0	0.00000000E+0	3.82000000E-13	7.30000000E-14	0.00000000E+0	8.99522442E-5
9.82351000E+5	1.11999216E+1	0.00000000E+0	0.00000000E+0	3.94100000E-13	7.87000000E-14	0.00000000E+0	8.95988452E-5
9.89202000E+5	1.13000579E+1	0.00000000E+0	0.00000000E+0	4.42200000E-13	9.62000000E-14	0.00000000E+0	9.01748288E-5
9.95976000E+5	1.13999935E+1	0.00000000E+0	0.00000000E+0	5.61000000E-13	1.29300000E-13	0.00000000E+0	8.99667609E-5
1.00285800E+6	1.14999941E+1	0.00000000E+0	0.00000000E+0	8.07600000E-13	1.91200000E-13	0.00000000E+0	8.97973615E-5
1.00959700E+6	1.16000271E+1	0.00000000E+0	0.00000000E+0	1.12750000E-12	2.78900000E-13	1.00000000E+0	8.98992824E-5
1.01619900E+6	1.16999809E+1	0.00000000E+0	0.00000000E+0	1.33590000E-12	3.28700000E-13	0.00000000E+0	8.95879822E-5
1.02294400E+6	1.18000336E+1	0.00000000E+0	0.00000000E+0	1.51400000E-12	3.76700000E-13	1.00000000E+0	8.96657425E-5
1.02966300E+6	1.18999722E+1	0.00000000E+0	0.00000000E+0	1.72910000E-12	4.20600000E-13	0.00000000E+0	8.99778891E-5
1.03628300E+6	1.20000530E+1	0.00000000E+0	0.00000000E+0	2.12370000E-12	5.18200000E-13	1.00000000E+0	8.99637806E-5
1.04292700E+6	1.20999648E+1	0.00000000E+0	0.00000000E+0	2.73640000E-12	6.69000000E-13	1.00000000E+0	8.99938512E-5
1.04947800E+6	1.22000095E+1	0.00000000E+0	0.00000000E+0	3.56660000E-12	8.65200000E-13	2.00000000E+0	8.94052582E-5
1.05597100E+6	1.23000162E+1	0.00000000E+0	0.00000000E+0	4.43430000E-12	1.06780000E-12	1.00000000E+0	8.94865113E-5
1.06251600E+6	1.24000173E+1	0.00000000E+0	0.00000000E+0	5.01550000E-12	1.20970000E-12	0.00000000E+0	8.95075696E-5
1.06905500E+6	1.25000105E+1	0.00000000E+0	0.00000000E+0	5.11450000E-12	1.22720000E-12	3.00000000E+0	8.98808765E-5
1.07571200E+6	1.25999948E+1	0.00000000E+0	0.00000000E+0	4.95640000E-12	1.19020000E-12	3.00000000E+0	8.96607089E-5
1.08224600E+6	1.27000098E+1	0.00000000E+0	0.00000000E+0	4.79420000E-12	1.15930000E-12	2.00000000E+0	8.96838832E-5
1.08874100E+6	1.28000185E+1	0.00000000E+0	0.00000000E+0	4.70430000E-12	1.13090000E-12	5.00000000E+0	8.97154796E-5
1.09507000E+6	1.28999421E+1	0.00000000E+0	0.00000000E+0	4.86470000E-12	1.17640000E-12	6.00000000E+0	8.96937507E-5
1.10159000E+6	1.30000570E+1	0.00000000E+0	0.00000000E+0	5.27790000E-12	1.26580000E-12	7.00000000E+0	8.94571053E-5
1.10797100E+6	1.30999568E+1	0.00000000E+0	0.00000000E+0	5.97670000E-12	1.43990000E-12	6.00000000E+0	8.96224159E-5
1.11434600E+6	1.32000086E+1	0.00000000E+0	0.00000000E+0	6.96620000E-12	1.66640000E-12	7.00000000E+0	8.92630147E-5
1.12073200E+6	1.33000247E+1	0.00000000E+0	0.00000000E+0	8.09840000E-12	1.93640000E-12	7.00000000E+0	8.94670802E-5
1.12708200E+6	1.34000125E+1	0.00000000E+0	0.00000000E+0	9.22240000E-12	2.19710000E-12	1.20000000E+1	8.95175295E-5
1.13343300E+6	1.34999960E+1	0.00000000E+0	0.00000000E+0	1.01167000E-11	2.38770000E-12	1.50000000E+1	8.98756134E-5
1.13997300E+6	1.36000166E+1	0.00000000E+0	0.00000000E+0	1.06396000E-11	2.49580000E-12	1.40000000E+1	9.00095361E-5
1.14633800E+6	1.37000119E+1	0.00000000E+0	0.00000000E+0	1.07960000E-11	2.53280000E-12	1.00000000E+1	9.01537556E-5
1.15262300E+6	1.37999945E+1	0.00000000E+0	0.00000000E+0	1.07255000E-11	2.50180000E-12	2.00000000E+1	8.98361373E-5
1.15906000E+6	1.39000103E+1	0.00000000E+0	0.00000000E+0	1.06673000E-11	2.49330000E-12	2.30000000E+1	9.02031291E-5
1.16542500E+6	1.40000128E+1	0.00000000E+0	0.00000000E+0	1.06560000E-11	2.48460000E-12	1.70000000E+1	9.00754321E-5
1.17187000E+6	1.41000025E+1	0.00000000E+0	0.00000000E+0	1.08768000E-11	2.53560000E-12	1.70000000E+1	8.99115670E-5
1.17825100E+6	1.42000136E+1	0.00000000E+0	0.00000000E+0	1.13546000E-11	2.63590000E-12	1.80000000E+1	8.99180102E-5
1.18459000E+6	1.42999831E+1	0.00000000E+0	0.00000000E+0	1.21081000E-11	2.80270000E-12	2.80000000E+1	9.00286424E-5
1.19119500E+6	1.43999805E+1	0.00000000E+0	0.00000000E+0	1.31293000E-11	3.05210000E-12	2.30000000E+1	9.00411058E-5
1.19752100E+6	1.44999775E+1	0.00000000E+0	0.00000000E+0	1.43201000E-11	3.31470000E-12	2.40000000E+1	8.98563880E-5
1.20387900E+6	1.46000317E+1	0.00000000E+0	0.00000000E+0	1.54787000E-11	3.58400000E-12	2.70000000E+1	9.04481757E-5
1.21026200E+6	1.46999577E+1	0.00000000E+0	0.00000000E+0	1.66056000E-11	3.81410000E-12	3.50000000E+1	8.98731428E-5
1.21655900E+6	1.48000079E+1	0.00000000E+0	0.00000000E+0	1.73036000E-11	3.98600000E-12	2.80000000E+1	8.97015649E-5
1.22286900E+6	1.49000686E+1	0.00000000E+0	0.00000000E+0	1.77607000E-11	4.06090000E-12	6.20000000E+1	8.98291456E-5
1.22931000E+6	1.49999839E+1	0.00000000E+0	0.00000000E+0	1.79316000E-11	4.07340000E-12	4.30000000E+1	9.02000922E-5
1.23565000E+6	1.50999997E+1	0.00000000E+0	0.00000000E+0	1.79492000E-11	4.04130000E-12	3.80000000E+1	8.98318755E-5
1.24186600E+6	1.51999801E+1	0.00000000E+0	0.00000000E+0	1.78175000E-11	4.00860000E-12	5.70000000E+1	8.99662185E-5
1.24893000E+6	1.53000115E+1	0.00000000E+0	0.00000000E+0	1.78567000E-11	3.99060000E-12	4.90000000E+1	8.98937064E-5
1.25501500E+6	1.54000117E+1	0.00000000E+0	0.00000000E+0	1.81427000E-11	4.04240000E-12	4.70000000E+1	9.00925535E-5
1.26139300E+6	1.54999926E+1	0.00000000E+0	0.00000000E+0	1.86375000E-11	4.13620000E-12	6.60000000E+1	8.96240073E-5
1.26772100E+6	1.56000074E+1	0.00000000E+0	0.00000000E+0	1.93638000E-11	4.26950000E-12	5.90000000E+1	9.02960080E-5
1.27381500E+6	1.56999919E+1	0.00000000E+0	0.00000000E+0	2.01227000E-11	4.42720000E-12	5.60000000E+1	8.98477751E-5
1.28013200E+6	1.58000218E+1	0.00000000E+0	0.00000000E+0	2.07958000E-11	4.55380000E-12	5.80000000E+1	8.98657876E-5
1.28654300E+6	1.58999711E+1	0.00000000E+0	0.00000000E+0	2.10681000E-11	4.59760000E-12	6.70000000E+1	8.98949849E-5
1.29264100E+6	1.60000006E+1	0.00000000E+0	0.00000000E+0	2.07463000E-11	4.51440000E-12	7.20000000E+1	8.97652465E-5
1.29899500E+6	1.61000468E+1	0.00000000E+0	0.00000000E+0	1.98426000E-11	4.30580000E-12	5.50000000E+1	8.95513522E-5
1.30507600E+6	1.62000224E+1	0.00000000E+0	0.00000000E+0	1.82450000E-11	3.95420000E-12	6.90000000E+1	8.98152429E-5
1.31140400E+6	1.63000099E+1	0.00000000E+0	0.00000000E+0	1.59580000E-11	3.44540000E-12	5.50000000E+1	8.97603619E-5
1.31770900E+6	1.64000084E+1	0.00000000E+0	0.00000000E+0	1.20489000E-11	2.59590000E-12	4.50000000E+1	8.96220791E-5
1.32370400E+6	1.64999289E+1	0.00000000E+0	0.00000000E+0	5.88310000E-12	1.27510000E-12	1.50000000E+1	8.98509937E-5
1.32994200E+6	1.66000836E+1	0.00000000E+0	0.00000000E+0	2.09730000E-12	4.34700000E-13	8.00000000E+0	8.94826280E-5
1.33618100E+6	1.66999118E+1	0.00000000E+0	0.00000000E+0	1.11810000E-12	2.19800000E-13	3.00000000E+0	8.99944711E-5
1.34226400E+6	1.68000946E+1	0.00000000E+0	0.00000000E+0	8.80900000E-13	1.65300000E-13	6.00000000E+0	8.96660643E-5
1.34845200E+6	1.69000163E+1	0.00000000E+0	0.00000000E+0	8.35000000E-13	1.63200000E-13	1.00000000E+0	8.97428381E-5
1.35451800E+6	1.69999764E+1	0.00000000E+0	0.00000000E+0	8.00100000E-13	1.54800000E-13	3.00000000E+0	8.97231477E-5
1.36071100E+6	1.70999792E+1	0.00000000E+0	0.00000000E+0	8.06300000E-13	1.56600000E-13	1.00000000E+0	8.98458230E-5
1.36693900E+6	1.71999325E+1	0.00000000E+0	0.00000000E+0	8.19300000E-13	1.62600000E-13	2.00000000E+0	8.97409129E-5
1.37295300E+6	1.73000584E+1	0.00000000E+0	0.00000000E+0	7.76000000E-13	1.48200000E-13	6.00000000E+0	8.97287059E-5
1.37922600E+6	1.74000456E+1	0.00000000E+0	0.00000000E+0	7.15800000E-13	1.41100000E-13	3.00000000E+0	9.00905180E-5
1.38530300E+6	1.74999941E+1	0.00000000E+0	0.00000000E+0	6.25600000E-13	1.17600000E-13	0.00000000E+0	9.03453488E-5
1.39141700E+6	1.76000342E+1	0.00000000E+0	0.00000000E+0	5.90200000E-13	1.13800000E-13	1.00000000E+0	8.98015457E-5
1.39758100E+6	1.76999703E+1	0.00000000E+0	0.00000000E+0	5.77700000E-13	1.05500000E-13	0.00000000E+0	8.99956810E-5
1.40351000E+6	1.77999603E+1	0.00000000E+0	0.00000000E+0	5.73400000E-13	9.65000000E-14	1.00000000E+0	9.02417499E-5
1.40979800E+6	1.79000654E+1	0.00000000E+0	0.00000000E+0	5.90300000E-13	9.93000000E-14	0.00000000E+0	8.99571586E-5
1.41595400E+6	1.79999789E+1	0.00000000E+0	0.00000000E+0	6.12900000E-13	1.16400000E-13	0.00000000E+0	9.00099117E-5
