G:\BEAR_storage\User_Experiments\20220317_arneodo\file(1)_Region 2__0066.txt
Ring Energy (GeV): 2
Lifetime (hours): 15.2392
Scan beginning: 3/21/2022	10:52:56 AM
Ring current (mA): 308.87
Source position: x (mm): 0.006 x' (mrad): 0 y (mm): 0 y' (mrad): 0.001
Scan end: 3/21/2022	10:58:14 AM
Ring current (mA): 308.67
Source position: x (mm): 0.006 x' (mrad): -0 y (mm): 0 y' (mrad): 0.001

SCAN TYPE: PHOTON ENERGY VS VAR_1 VS VAR_2

FILE INFO: FILE INFO:

SCAN PARAMETERS
waiting time (ms): 0
Number of scans: 1
Current scan number: 1
DARK OFF 
PREDARK OFF 

SCAN PARAMETERS
Regions configuration: 
number of regions: 6
Mirror grating scan: on
Timed acquisition: off
Region 1:
Initial energy (eV): 40.000000
Final energy (eV): 72.000000
Delta energy (eV): 1.000000
Deviation angle choice: Higher order rejection
Deviation angle (°): NaN
Al filter
G1200 channel
range keithley B 20 nA
range keithley C 200 nA
range keithley A 20 nA
Var_1: PsiC 0.000000
Var_2: PhiM0.000000
Bias CEM (V): 0.000000
Bias Keithley B (V): -30.000000
Name region: 
Region 2:
Initial energy (eV): 70.000000
Final energy (eV): 102.000000
Delta energy (eV): 1.000000
Deviation angle choice: Higher order rejection
Deviation angle (°): NaN
Si filter
G1200 channel
range keithley B 20 nA
range keithley C 200 nA
range keithley A 20 nA
Var_1: PsiC 0.000000
Var_2: PhiM0.000000
Bias CEM (V): 0.000000
Bias Keithley B (V): -30.000000
Name region: 
Region 3:
Initial energy (eV): 98.000000
Final energy (eV): 260.000000
Delta energy (eV): 1.000000
Deviation angle choice: Higher order rejection
Deviation angle (°): NaN
Full Beam
G1200 channel
range keithley B 20 nA
range keithley C 200 nA
range keithley A 200 nA
Var_1: PsiC 0.000000
Var_2: PhiM0.000000
Bias CEM (V): 0.000000
Bias Keithley B (V): -30.000000
Name region: 
Region 4:
Initial energy (eV): 255.000000
Final energy (eV): 320.000000
Delta energy (eV): 1.000000
Deviation angle choice: Higher order rejection
Deviation angle (°): NaN
filter Ag 0.6 um
G1200 channel
range keithley B 200 pA
range keithley C 200 nA
range keithley A 200 pA
Var_1: PsiC 0.000000
Var_2: PhiM0.000000
Bias CEM (V): 0.000000
Bias Keithley B (V): -30.000000
Name region: 
Region 5:
Initial energy (eV): 315.000000
Final energy (eV): 1200.000000
Delta energy (eV): 5.000000
Deviation angle choice: Higher order rejection
Deviation angle (°): NaN
Full Beam
G1200 channel
range keithley B 20 nA
range keithley C 200 nA
range keithley A 20 nA
Var_1: PsiC 0.000000
Var_2: PhiM0.000000
Bias CEM (V): 0.000000
Bias Keithley B (V): -30.000000
Name region: 
Region 6:
Initial energy (eV): 1190.000000
Final energy (eV): 1500.000000
Delta energy (eV): 5.000000
Deviation angle choice: Higher order rejection
Deviation angle (°): NaN
filter Ag 0.6 um
G1200 channel
range keithley B 200 pA
range keithley C 200 nA
range keithley A 200 pA
Var_1: PsiC 0.000000
Var_2: PhiM0.000000
Bias CEM (V): 0.000000
Bias Keithley B (V): -30.000000
Name region: 

BEAR MONOCHROMATOR CONFIGURATION: 
Current Grating Position:     -236072.00
Current Mirror Position: 2556.9
Current Grating: G1200
P2 phiz position:  0.0000
Mono axis position: 25.0000
Current Photon Energy (eV): 40.000
Current Deviation Angle: 155.000
Vertical Exit Slits (um): 100.000
Exit slit y axis position: 1.3625
Horizontal Exit Slits (um):  889.156
Exit slit z axis position: 1.9229
Mitutoyo position (mm): 

Dose on sample (mJ/cm^2): NaN

ENERGY CALIBRATION:
offset grating G1200: yes
Delta 0 order G1200:  -1100.0
offset grating G1800: not
Delta 0 order G1800:  0.0
offset grating GNIM: not
Delta 0 order GNIM:  0.0
ZERO ORDER POSITIONS:
Grating G1200: Mirror position:  4938.0
Grating position: -105355.0
Grating G1800: 
Mirror position:  4938.0
Grating position: -106345.0
Grating GNIM: 
Mirror position:  10000.0
Grating position: 227300.0

Initial filter: Full Beam

EXPERIMENTAL CHAMBER CONFIGURATION: 
PsiC (deg):   -0.000186
Phi Analyzer (degrees): 89.992308
Theta Manipulator (degrees): -44.000040
Theta Analyzer (degrees): -135.001468
PhiM (degrees): -0.002051
XM (mm): 0.000900
YM (mm): 7.891988
ZM (mm): (Warning: for kinetic energy scans, 
this parameter is given in the scan settings) 
-10.201488
TiltM (°): 0.000138

ELECTRON ANALYZER CONFIGURATION: 
Current Kinetik energy (eV): 35.0
Mode: DE = COST
Pass Energy (eV):  100.000
CEM: ON
Bias Front-Back CEM (V): 3499.561
Bias Back-Collector CEM (V): 100.874
Bias Retard-Front CEM: 100.087COIL VALUES
Ix (amps):2.820
Iy (amps): 6.789
Iz (amps): 37.337

POLARIZATION SELECTOR CONFIGURATION:
Psi1 (rad): -0.001665535
Psi2 (rad): 0.001417093
Z min position (mm): 46.599650
DZ position (mm): 18.599100
Zmin 0 (mm): 66.500000
DZ0 (mm): 53.000000

BEAM SELECTOR CONFIGURATION:
Zmin position (mm): NaN
DZ position (mm): NaN
Y+ position (mm): NaN
Y- position (mm): NaN

CHANNEL ELECTRON MULTIPLIER CONFIGURATION:
CEM configured: OFF
Bias CEM: 0.000000

FLUORESCENCE DETECTOR CONFIGURATION:
Not configured

LUMINESCENCE MONOCHROMATOR CONFIGURATION:
Optical fiber position (mm): 0.000000
Optical fiber Switch inside: OFF
Optical fiber Switch outside: ON
Monochromator wavelength (A): 0.000000
Limit Switches: ON

I0 MONITOR PARAMETERS:
I0 detector position(mm): -1.924999E+2
Lower switch: OFF
Upper switch: OFF
Valve status:open

PRESSURE PARAMETERS:
Monitor chamber pressure (mbar): 9.955e-10
Experimental chamber pressure -ION GAUGE-(mbar): 0.000000E+0

XMCD PARAMETERS:
Xmcd OFF
Xmcd Direction -
Xmcd current (A): 0.000000

Gated scan off

Instrument 1: AMMETER KEITHLEY 6517A B
Measure type: Current
range type: set range value
range value (ampere):  200 pA
Integration time:  set NPLC value
NPLC value: 10.000
Digital filter count: 2
SAMPLE BIAS (V): -30.000
Vsource: ON
Output Voltage value: 30.000
Vsource range: 1000 V

Range Keithley B changed to 20 nA

Instrument 2: AMMETER KEITHLEY 6517A A
Measure type: Current
range type: set range value
range value (ampere):  200 nA
Integration time:  set NPLC value
NPLC value: 10.000
Digital filter count: 2
Vsource: OFF
Output Voltage value: -0.000
Vsource range: 100 V
Trigger source: bus

Range Keithley A changed to 20 nA

Range Keithley A changed to 200 nA

Range Keithley A changed to 200 pA

Range Keithley A changed to 20 nA

Range Keithley A changed to 200 pA

Range Keithley A changed to 20 nA

Range Keithley A changed to 200 nA

Range Keithley A changed to 200 pA

Range Keithley A changed to 20 nA

Range Keithley A changed to 200 pA

Range Keithley A changed to 20 nA

Range Keithley A changed to 200 nA

Range Keithley A changed to 200 pA

Range Keithley A changed to 20 nA

Range Keithley A changed to 200 pA

Range Keithley A changed to 20 nA

Range Keithley A changed to 200 pA

Range Keithley A changed to 20 nA

Range Keithley A changed to 200 pA

Range Keithley A changed to 20 nA

Range Keithley A changed to 200 pA

Range Keithley A changed to 20 nA

Range Keithley A changed to 200 nA

Range Keithley A changed to 200 pA

Range Keithley A changed to 20 nA

Range Keithley A changed to 200 pA

Range Keithley A changed to 20 nA

Range Keithley A changed to 200 nA

Range Keithley A changed to 200 pA

Range Keithley A changed to 20 nA

Range Keithley A changed to 200 nA

Range Keithley A changed to 200 pA

Range Keithley A changed to 20 nA

Range Keithley A changed to 200 pA

Range Keithley A changed to 20 nA

Range Keithley A changed to 200 pA

Range Keithley A changed to 20 nA

Range Keithley A changed to 200 nA

Range Keithley A changed to 200 pA

Range Keithley A changed to 20 nA

Range Keithley A changed to 200 pA

Range Keithley A changed to 20 nA

Range Keithley A changed to 200 nA

Range Keithley A changed to 20 nA

Range Keithley A changed to 200 nA

Range Keithley A changed to 200 pA

Range Keithley A changed to 20 nA

Range Keithley A changed to 200 nA

Range Keithley A changed to 2 uA

Range Keithley A changed to 20 nA

Range Keithley A changed to 200 nA

Range Keithley A changed to 2 uA

Range Keithley A changed to 20 nA

Range Keithley A changed to 200 nA

Range Keithley A changed to 200 pA

Range Keithley A changed to 2 uA

Range Keithley A changed to 20 nA

Range Keithley A changed to 200 nA

Range Keithley A changed to 200 pA

Range Keithley A changed to 20 nA

Range Keithley A changed to 2 uA

Range Keithley A changed to 20 nA

Range Keithley A changed to 200 nA

Range Keithley A changed to 20 nA

Range Keithley A changed to 200 nA

Range Keithley A changed to 200 pA

Range Keithley A changed to 2 uA

Range Keithley A changed to 20 nA

Range Keithley A changed to 200 nA

Range Keithley A changed to 20 nA

Range Keithley A changed to 200 nA

Range Keithley A changed to 200 pA

Range Keithley A changed to 20 nA

Range Keithley A changed to 200 nA

Range Keithley A changed to 20 nA

Range Keithley A changed to 200 nA

Range Keithley A changed to 200 pA

Range Keithley A changed to 20 nA

Range Keithley A changed to 200 nA

Range Keithley A changed to 200 pA

Range Keithley A changed to 20 nA

Range Keithley A changed to 200 pA

Range Keithley A changed to 20 nA

Range Keithley A changed to 200 pA

Range Keithley A changed to 20 nA

Range Keithley A changed to 200 pA

Range Keithley A changed to 20 nA

Range Keithley A changed to 200 pA

Range Keithley A changed to 20 nA

Range Keithley A changed to 200 nA

Range Keithley A changed to 2 uA

Range Keithley A changed to 20 uA

Range Keithley A changed to 200 uA

Range Keithley A changed to 20 nA

Range Keithley A changed to 200 nA

Instrument 3: COUNTER ORTEC 996Integration time (sec): 1.000


Range Keithley C changed to 200 nA


________________________________________________________________________________

RelativeTime (msec)	Photon Energy	Var_1	Var_2	INSTR_1_Sample with Bias _(ampere ) 	INSTR_2_Monitor IM_(ampere)  	INSTR_3_Ortec 996 counts_(counts)	I_BPM_sum (Amps)	
________________________________________________________________________________

1.70320000E+5	7.00008787E+1	0.00000000E+0	0.00000000E+0	3.75000000E-12	2.35930000E-10	2.79000000E+2	8.90545057E-5
1.75466000E+5	7.09992392E+1	0.00000000E+0	0.00000000E+0	4.32000000E-12	2.53830000E-10	2.83000000E+2	8.91302424E-5
1.79861000E+5	7.20001239E+1	0.00000000E+0	0.00000000E+0	3.65000000E-12	2.17890000E-10	2.93000000E+2	8.91606348E-5
1.84151000E+5	7.29997794E+1	0.00000000E+0	0.00000000E+0	4.88000000E-12	2.80570000E-10	3.03000000E+2	8.91028212E-5
1.88400000E+5	7.40002007E+1	0.00000000E+0	0.00000000E+0	5.15000000E-12	3.19440000E-10	3.17000000E+2	8.93450665E-5
1.92665000E+5	7.49996864E+1	0.00000000E+0	0.00000000E+0	5.44000000E-12	3.22250000E-10	3.17000000E+2	8.92235952E-5
1.96942000E+5	7.60004672E+1	0.00000000E+0	0.00000000E+0	5.75000000E-12	3.69570000E-10	3.18000000E+2	8.93612938E-5
2.01241000E+5	7.70000335E+1	0.00000000E+0	0.00000000E+0	6.88000000E-12	4.15030000E-10	3.65000000E+2	8.91929316E-5
2.05492000E+5	7.79999963E+1	0.00000000E+0	0.00000000E+0	7.44000000E-12	4.50820000E-10	3.45000000E+2	8.91553449E-5
2.09812000E+5	7.90001563E+1	0.00000000E+0	0.00000000E+0	7.67000000E-12	4.90270000E-10	3.73000000E+2	8.89049249E-5
2.14076000E+5	7.99998419E+1	0.00000000E+0	0.00000000E+0	8.04000000E-12	5.30530000E-10	4.00000000E+2	8.93795120E-5
2.18381000E+5	8.10001560E+1	0.00000000E+0	0.00000000E+0	8.77000000E-12	5.69840000E-10	4.03000000E+2	8.89986562E-5
2.22712000E+5	8.19998430E+1	0.00000000E+0	0.00000000E+0	9.29000000E-12	6.08260000E-10	3.95000000E+2	8.91579466E-5
2.26868000E+5	8.29995290E+1	0.00000000E+0	0.00000000E+0	9.96000000E-12	6.52910000E-10	3.85000000E+2	8.87732045E-5
2.31113000E+5	8.40006640E+1	0.00000000E+0	0.00000000E+0	1.07800000E-11	7.03560000E-10	4.18000000E+2	8.90046405E-5
2.35283000E+5	8.49998984E+1	0.00000000E+0	0.00000000E+0	1.13800000E-11	7.55840000E-10	4.67000000E+2	8.88209628E-5
2.39419000E+5	8.60003041E+1	0.00000000E+0	0.00000000E+0	1.23300000E-11	8.10060000E-10	4.48000000E+2	8.85949270E-5
2.43493000E+5	8.69997731E+1	0.00000000E+0	0.00000000E+0	1.29200000E-11	8.68260000E-10	4.48000000E+2	8.90277194E-5
2.48449000E+5	8.80003083E+1	0.00000000E+0	0.00000000E+0	1.33500000E-11	9.26120000E-10	4.38000000E+2	8.85546075E-5
2.52593000E+5	8.90002366E+1	0.00000000E+0	0.00000000E+0	1.45200000E-11	9.86510000E-10	4.92000000E+2	8.91958969E-5
2.56770000E+5	9.00000001E+1	0.00000000E+0	0.00000000E+0	1.53000000E-11	1.05985000E-9	4.87000000E+2	8.90160071E-5
2.60883000E+5	9.09997924E+1	0.00000000E+0	0.00000000E+0	1.62800000E-11	1.14057000E-9	5.27000000E+2	8.91150193E-5
2.65031000E+5	9.20003597E+1	0.00000000E+0	0.00000000E+0	1.67200000E-11	1.21871000E-9	5.50000000E+2	8.87850957E-5
2.69227000E+5	9.30003309E+1	0.00000000E+0	0.00000000E+0	1.75700000E-11	1.29745000E-9	5.58000000E+2	8.90171783E-5
2.73423000E+5	9.39998123E+1	0.00000000E+0	0.00000000E+0	1.89500000E-11	1.38792000E-9	5.78000000E+2	8.89273183E-5
2.77619000E+5	9.50000203E+1	0.00000000E+0	0.00000000E+0	1.97900000E-11	1.47740000E-9	5.83000000E+2	8.88390289E-5
2.81715000E+5	9.59994003E+1	0.00000000E+0	0.00000000E+0	2.10500000E-11	1.55558000E-9	6.20000000E+2	8.87104706E-5
2.85802000E+5	9.70007438E+1	0.00000000E+0	0.00000000E+0	2.17200000E-11	1.62985000E-9	6.37000000E+2	8.88039099E-5
2.89859000E+5	9.80001029E+1	0.00000000E+0	0.00000000E+0	2.21200000E-11	1.70553000E-9	6.66000000E+2	8.90341001E-5
2.93890000E+5	9.90001784E+1	0.00000000E+0	0.00000000E+0	2.30500000E-11	1.77515000E-9	6.18000000E+2	8.90929626E-5
2.97952000E+5	9.99999835E+1	0.00000000E+0	0.00000000E+0	2.34300000E-11	1.82507000E-9	6.46000000E+2	8.87623446E-5
3.02014000E+5	1.01000083E+2	0.00000000E+0	0.00000000E+0	2.20500000E-11	1.73140000E-9	6.17000000E+2	8.88627277E-5
3.06047000E+5	1.02000088E+2	0.00000000E+0	0.00000000E+0	4.70000000E-13	2.70400000E-11	1.88000000E+2	8.87212352E-5
