G:\BEAR_storage\User_Experiments\20220317_arneodo\file(1)_Region 1__0036.txt
Ring Energy (GeV): 2
Lifetime (hours): 14.8142
Scan beginning: 3/18/2022	4:14:50 PM
Ring current (mA): 308.39
Source position: x (mm): 0.005 x' (mrad): -0.001 y (mm): 0.007 y' (mrad): 0.001
Scan end: 3/18/2022	4:17:41 PM
Ring current (mA): 308.56
Source position: x (mm): 0.003 x' (mrad): 0 y (mm): 0.008 y' (mrad): 0.001

SCAN TYPE: PHOTON ENERGY VS VAR_1 VS VAR_2

FILE INFO: FILE INFO:

SCAN PARAMETERS
waiting time (ms): 0
Number of scans: 1
Current scan number: 1
DARK OFF 
PREDARK OFF 

SCAN PARAMETERS
Regions configuration: 
number of regions: 6
Mirror grating scan: on
Timed acquisition: off
Region 1:
Initial energy (eV): 40.000000
Final energy (eV): 72.000000
Delta energy (eV): 1.000000
Deviation angle choice: Higher order rejection
Deviation angle (°): NaN
Al filter
G1200 channel
range keithley B 20 nA
range keithley C 200 nA
range keithley A 20 nA
Var_1: PsiC 0.000000
Var_2: PhiM0.000000
Bias CEM (V): 0.000000
Bias Keithley B (V): -30.000000
Name region: 
Region 2:
Initial energy (eV): 70.000000
Final energy (eV): 102.000000
Delta energy (eV): 1.000000
Deviation angle choice: Higher order rejection
Deviation angle (°): NaN
Si filter
G1200 channel
range keithley B 20 nA
range keithley C 200 nA
range keithley A 20 nA
Var_1: PsiC 0.000000
Var_2: PhiM0.000000
Bias CEM (V): 0.000000
Bias Keithley B (V): -30.000000
Name region: 
Region 3:
Initial energy (eV): 98.000000
Final energy (eV): 260.000000
Delta energy (eV): 1.000000
Deviation angle choice: Higher order rejection
Deviation angle (°): NaN
Full Beam
G1200 channel
range keithley B 20 nA
range keithley C 200 nA
range keithley A 200 nA
Var_1: PsiC 0.000000
Var_2: PhiM0.000000
Bias CEM (V): 0.000000
Bias Keithley B (V): -30.000000
Name region: 
Region 4:
Initial energy (eV): 255.000000
Final energy (eV): 320.000000
Delta energy (eV): 1.000000
Deviation angle choice: Higher order rejection
Deviation angle (°): NaN
filter Ag 0.6 um
G1200 channel
range keithley B 200 pA
range keithley C 200 nA
range keithley A 200 pA
Var_1: PsiC 0.000000
Var_2: PhiM0.000000
Bias CEM (V): 0.000000
Bias Keithley B (V): -30.000000
Name region: 
Region 5:
Initial energy (eV): 315.000000
Final energy (eV): 1200.000000
Delta energy (eV): 5.000000
Deviation angle choice: Higher order rejection
Deviation angle (°): NaN
Full Beam
G1200 channel
range keithley B 20 nA
range keithley C 200 nA
range keithley A 20 nA
Var_1: PsiC 0.000000
Var_2: PhiM0.000000
Bias CEM (V): 0.000000
Bias Keithley B (V): -30.000000
Name region: 
Region 6:
Initial energy (eV): 1190.000000
Final energy (eV): 1500.000000
Delta energy (eV): 5.000000
Deviation angle choice: Higher order rejection
Deviation angle (°): NaN
filter Ag 0.6 um
G1200 channel
range keithley B 200 pA
range keithley C 200 nA
range keithley A 200 pA
Var_1: PsiC 0.000000
Var_2: PhiM0.000000
Bias CEM (V): 0.000000
Bias Keithley B (V): -30.000000
Name region: 

BEAR MONOCHROMATOR CONFIGURATION: 
Current Grating Position:     -200137.40
Current Mirror Position: 2559.2
Current Grating: G1200
P2 phiz position:  0.0000
Mono axis position: 25.0000
Current Photon Energy (eV): 55.806
Current Deviation Angle: 155.000
Vertical Exit Slits (um): 100.000
Exit slit y axis position: 1.3625
Horizontal Exit Slits (um):  889.156
Exit slit z axis position: 1.9229
Mitutoyo position (mm): 

Dose on sample (mJ/cm^2): NaN

ENERGY CALIBRATION:
offset grating G1200: yes
Delta 0 order G1200:  -800.0
offset grating G1800: not
Delta 0 order G1800:  0.0
offset grating GNIM: not
Delta 0 order GNIM:  0.0
ZERO ORDER POSITIONS:
Grating G1200: Mirror position:  4938.0
Grating position: -105355.0
Grating G1800: 
Mirror position:  4938.0
Grating position: -106345.0
Grating GNIM: 
Mirror position:  10000.0
Grating position: 227300.0

Initial filter: Full Beam

EXPERIMENTAL CHAMBER CONFIGURATION: 
PsiC (deg):   -0.000186
Phi Analyzer (degrees): 89.993255
Theta Manipulator (degrees): -44.000040
Theta Analyzer (degrees): -135.001468
PhiM (degrees): -0.005129
XM (mm): 0.000763
YM (mm): 19.932987
ZM (mm): (Warning: for kinetic energy scans, 
this parameter is given in the scan settings) 
-6.601425
TiltM (°): 0.000138

ELECTRON ANALYZER CONFIGURATION: 
Current Kinetik energy (eV): 35.0
Mode: DE = COST
Pass Energy (eV):  50.000
CEM: ON
Bias Front-Back CEM (V): 3499.561
Bias Back-Collector CEM (V): 100.874
Bias Retard-Front CEM: 100.087COIL VALUES
Ix (amps):2.820
Iy (amps): 6.789
Iz (amps): 37.337

POLARIZATION SELECTOR CONFIGURATION:
Psi1 (rad): -0.001665535
Psi2 (rad): 0.001417093
Z min position (mm): 46.599650
DZ position (mm): 18.599100
Zmin 0 (mm): 66.500000
DZ0 (mm): 53.000000

BEAM SELECTOR CONFIGURATION:
Zmin position (mm): NaN
DZ position (mm): NaN
Y+ position (mm): NaN
Y- position (mm): NaN

CHANNEL ELECTRON MULTIPLIER CONFIGURATION:
CEM configured: OFF
Bias CEM: 0.000000

FLUORESCENCE DETECTOR CONFIGURATION:
Not configured

LUMINESCENCE MONOCHROMATOR CONFIGURATION:
Optical fiber position (mm): 0.000000
Optical fiber Switch inside: OFF
Optical fiber Switch outside: ON
Monochromator wavelength (A): 0.000000
Limit Switches: ON

I0 MONITOR PARAMETERS:
I0 detector position(mm): -1.924999E+2
Lower switch: OFF
Upper switch: OFF
Valve status:open

PRESSURE PARAMETERS:
Monitor chamber pressure (mbar): 9.263e-10
Experimental chamber pressure -ION GAUGE-(mbar): 0.000000E+0

XMCD PARAMETERS:
Xmcd OFF
Xmcd Direction -
Xmcd current (A): 0.000000

Gated scan off

Instrument 1: AMMETER KEITHLEY 6517A B
Measure type: Current
range type: set range value
range value (ampere):  200 pA
Integration time:  set NPLC value
NPLC value: 10.000
Digital filter count: 2
SAMPLE BIAS (V): -30.000
Vsource: ON
Output Voltage value: 30.000
Vsource range: 1000 V

Range Keithley B changed to 20 nA

Range Keithley B changed to 200 pA

Range Keithley B changed to 20 nA

Range Keithley B changed to 200 pA

Range Keithley B changed to 20 nA

Range Keithley B changed to 200 pA

Range Keithley B changed to 20 nA

Range Keithley B changed to 200 nA

Range Keithley B changed to 200 pA

Range Keithley B changed to 20 nA

Range Keithley B changed to 200 pA

Range Keithley B changed to 20 nA

Range Keithley B changed to 200 pA

Range Keithley B changed to 20 nA

Instrument 2: AMMETER KEITHLEY 6517A A
Measure type: Current
range type: set range value
range value (ampere):  200 nA
Integration time:  set NPLC value
NPLC value: 10.000
Digital filter count: 2
Vsource: OFF
Output Voltage value: -0.000
Vsource range: 100 V
Trigger source: bus

Range Keithley A changed to 20 nA

Range Keithley A changed to 200 nA

Range Keithley A changed to 200 pA

Range Keithley A changed to 20 nA

Range Keithley A changed to 200 pA

Range Keithley A changed to 20 nA

Range Keithley A changed to 200 nA

Range Keithley A changed to 200 pA

Range Keithley A changed to 20 nA

Range Keithley A changed to 200 pA

Range Keithley A changed to 20 nA

Range Keithley A changed to 200 nA

Range Keithley A changed to 200 pA

Range Keithley A changed to 20 nA

Range Keithley A changed to 200 pA

Range Keithley A changed to 20 nA

Range Keithley A changed to 200 pA

Range Keithley A changed to 20 nA

Range Keithley A changed to 200 pA

Range Keithley A changed to 20 nA

Range Keithley A changed to 200 pA

Range Keithley A changed to 20 nA

Range Keithley A changed to 200 nA

Range Keithley A changed to 200 pA

Range Keithley A changed to 20 nA

Range Keithley A changed to 200 pA

Range Keithley A changed to 20 nA

Range Keithley A changed to 200 nA

Range Keithley A changed to 200 pA

Range Keithley A changed to 20 nA

Range Keithley A changed to 200 nA

Range Keithley A changed to 200 pA

Range Keithley A changed to 20 nA

Range Keithley A changed to 200 pA

Range Keithley A changed to 20 nA

Range Keithley A changed to 200 pA

Range Keithley A changed to 20 nA

Instrument 3: COUNTER ORTEC 996Integration time (sec): 1.000


Range Keithley C changed to 200 nA


________________________________________________________________________________

RelativeTime (msec)	Photon Energy	Var_1	Var_2	INSTR_1_Sample with Bias _(ampere ) 	INSTR_2_Monitor IM_(ampere)  	INSTR_3_Ortec 996 counts_(counts)	I_BPM_sum (Amps)	
________________________________________________________________________________

5.91000000E+3	3.99998443E+1	0.00000000E+0	0.00000000E+0	1.32380000E-10	4.46200000E-11	4.43960000E+4	8.93287914E-5
1.23050000E+4	4.09997840E+1	0.00000000E+0	0.00000000E+0	1.45600000E-10	5.08100000E-11	4.80340000E+4	8.93473344E-5
1.74600000E+4	4.20000711E+1	0.00000000E+0	0.00000000E+0	1.58170000E-10	5.73300000E-11	5.11280000E+4	8.97084254E-5
2.26040000E+4	4.30000133E+1	0.00000000E+0	0.00000000E+0	1.70510000E-10	6.40900000E-11	5.44540000E+4	8.94534724E-5
2.77050000E+4	4.39999576E+1	0.00000000E+0	0.00000000E+0	1.81120000E-10	7.07700000E-11	5.66850000E+4	8.93480318E-5
3.26360000E+4	4.49997147E+1	0.00000000E+0	0.00000000E+0	1.91950000E-10	7.78100000E-11	5.96260000E+4	8.94886749E-5
3.76220000E+4	4.60001735E+1	0.00000000E+0	0.00000000E+0	2.05850000E-10	8.60700000E-11	6.20780000E+4	8.99205404E-5
4.25690000E+4	4.70000736E+1	0.00000000E+0	0.00000000E+0	2.20420000E-10	9.52300000E-11	6.59340000E+4	8.97062200E-5
4.75450000E+4	4.79999202E+1	0.00000000E+0	0.00000000E+0	2.30480000E-10	1.03160000E-10	6.82140000E+4	8.95321267E-5
5.24760000E+4	4.90000106E+1	0.00000000E+0	0.00000000E+0	2.31890000E-10	1.07270000E-10	6.79230000E+4	8.94548165E-5
5.72860000E+4	4.99996886E+1	0.00000000E+0	0.00000000E+0	2.18720000E-10	1.05200000E-10	6.50330000E+4	8.95730811E-5
6.21030000E+4	5.10002413E+1	0.00000000E+0	0.00000000E+0	1.98900000E-10	9.90900000E-11	6.07330000E+4	8.92710166E-5
6.69080000E+4	5.19999019E+1	0.00000000E+0	0.00000000E+0	1.96820000E-10	1.00490000E-10	5.95820000E+4	8.94934105E-5
7.16110000E+4	5.29997623E+1	0.00000000E+0	0.00000000E+0	2.20510000E-10	1.14660000E-10	6.53760000E+4	8.93931585E-5
7.62990000E+4	5.40001858E+1	0.00000000E+0	0.00000000E+0	2.55270000E-10	1.34470000E-10	7.25240000E+4	8.95347285E-5
8.09970000E+4	5.50000322E+1	0.00000000E+0	0.00000000E+0	2.89630000E-10	1.55030000E-10	7.90030000E+4	8.93279033E-5
8.56730000E+4	5.60000672E+1	0.00000000E+0	0.00000000E+0	3.22460000E-10	1.76190000E-10	8.54010000E+4	8.94541340E-5
9.03620000E+4	5.70000484E+1	0.00000000E+0	0.00000000E+0	3.55940000E-10	1.98470000E-10	9.05460000E+4	8.93038260E-5
9.50470000E+4	5.79999099E+1	0.00000000E+0	0.00000000E+0	3.91180000E-10	2.22420000E-10	9.59650000E+4	8.95585763E-5
9.97530000E+4	5.89999911E+1	0.00000000E+0	0.00000000E+0	4.30650000E-10	2.49540000E-10	1.01129000E+5	8.92895567E-5
1.04279000E+5	5.99997774E+1	0.00000000E+0	0.00000000E+0	4.72080000E-10	2.79420000E-10	1.06007000E+5	8.94407468E-5
1.08865000E+5	6.10002772E+1	0.00000000E+0	0.00000000E+0	5.12940000E-10	3.10210000E-10	1.10034000E+5	8.97527563E-5
1.13426000E+5	6.19999118E+1	0.00000000E+0	0.00000000E+0	5.51300000E-10	3.40990000E-10	1.13102000E+5	8.96507489E-5
1.17941000E+5	6.29998944E+1	0.00000000E+0	0.00000000E+0	5.84280000E-10	3.70310000E-10	1.15407000E+5	8.94176620E-5
1.22534000E+5	6.39999573E+1	0.00000000E+0	0.00000000E+0	6.10240000E-10	3.96400000E-10	1.17013000E+5	8.93860298E-5
1.26992000E+5	6.49995631E+1	0.00000000E+0	0.00000000E+0	6.26980000E-10	4.17890000E-10	1.17867000E+5	8.92214583E-5
1.31569000E+5	6.60004557E+1	0.00000000E+0	0.00000000E+0	6.34790000E-10	4.33700000E-10	1.18462000E+5	8.96701502E-5
1.35988000E+5	6.69998384E+1	0.00000000E+0	0.00000000E+0	6.35230000E-10	4.44810000E-10	1.18234000E+5	8.97068995E-5
1.40394000E+5	6.80001430E+1	0.00000000E+0	0.00000000E+0	6.39170000E-10	4.58450000E-10	1.18710000E+5	8.94775408E-5
1.44779000E+5	6.89999835E+1	0.00000000E+0	0.00000000E+0	6.57630000E-10	4.81600000E-10	1.19717000E+5	8.94211369E-5
1.49215000E+5	6.99999131E+1	0.00000000E+0	0.00000000E+0	6.87640000E-10	5.14430000E-10	1.20383000E+5	8.95256656E-5
1.53632000E+5	7.10001332E+1	0.00000000E+0	0.00000000E+0	7.11030000E-10	5.43820000E-10	1.21486000E+5	8.91960668E-5
1.58021000E+5	7.20001239E+1	0.00000000E+0	0.00000000E+0	5.55860000E-10	4.36530000E-10	1.12512000E+5	8.95355391E-5
