G:\BEAR_storage\User_Experiments\20220317_arneodo\file(1)_Region 3__0079.txt
Ring Energy (GeV): 2
Lifetime (hours): 15.3642
Scan beginning: 3/21/2022	4:03:41 PM
Ring current (mA): 308.61
Source position: x (mm): 0.005 x' (mrad): 0.001 y (mm): 0 y' (mrad): 0.002
Scan end: 3/21/2022	4:20:36 PM
Ring current (mA): 309.19
Source position: x (mm): 0.007 x' (mrad): -0 y (mm): -0 y' (mrad): 0.001

SCAN TYPE: PHOTON ENERGY VS VAR_1 VS VAR_2

FILE INFO: FILE INFO:

SCAN PARAMETERS
waiting time (ms): 1000
Number of scans: 1
Current scan number: 1
DARK OFF 
PREDARK OFF 

SCAN PARAMETERS
Regions configuration: 
number of regions: 6
Mirror grating scan: on
Timed acquisition: off
Region 1:
Initial energy (eV): 40.000000
Final energy (eV): 72.000000
Delta energy (eV): 1.000000
Deviation angle choice: Higher order rejection
Deviation angle (°): NaN
Al filter
G1200 channel
range keithley B 20 nA
range keithley C 200 nA
range keithley A 20 nA
Var_1: PsiC 0.000000
Var_2: PhiM0.000000
Bias CEM (V): 0.000000
Bias Keithley B (V): -30.000000
Name region: 
Region 2:
Initial energy (eV): 70.000000
Final energy (eV): 102.000000
Delta energy (eV): 1.000000
Deviation angle choice: Higher order rejection
Deviation angle (°): NaN
Si filter
G1200 channel
range keithley B 20 nA
range keithley C 200 nA
range keithley A 20 nA
Var_1: PsiC 0.000000
Var_2: PhiM0.000000
Bias CEM (V): 0.000000
Bias Keithley B (V): -30.000000
Name region: 
Region 3:
Initial energy (eV): 98.000000
Final energy (eV): 260.000000
Delta energy (eV): 1.000000
Deviation angle choice: Higher order rejection
Deviation angle (°): NaN
Full Beam
G1200 channel
range keithley B 20 nA
range keithley C 200 nA
range keithley A 200 nA
Var_1: PsiC 0.000000
Var_2: PhiM0.000000
Bias CEM (V): 0.000000
Bias Keithley B (V): -30.000000
Name region: 
Region 4:
Initial energy (eV): 255.000000
Final energy (eV): 320.000000
Delta energy (eV): 1.000000
Deviation angle choice: Higher order rejection
Deviation angle (°): NaN
filter Ag 0.6 um
G1200 channel
range keithley B 200 pA
range keithley C 200 nA
range keithley A 200 pA
Var_1: PsiC 0.000000
Var_2: PhiM0.000000
Bias CEM (V): 0.000000
Bias Keithley B (V): -30.000000
Name region: 
Region 5:
Initial energy (eV): 315.000000
Final energy (eV): 1200.000000
Delta energy (eV): 5.000000
Deviation angle choice: Higher order rejection
Deviation angle (°): NaN
Full Beam
G1200 channel
range keithley B 20 nA
range keithley C 200 nA
range keithley A 20 nA
Var_1: PsiC 0.000000
Var_2: PhiM0.000000
Bias CEM (V): 0.000000
Bias Keithley B (V): -30.000000
Name region: 
Region 6:
Initial energy (eV): 1190.000000
Final energy (eV): 1500.000000
Delta energy (eV): 5.000000
Deviation angle choice: Higher order rejection
Deviation angle (°): NaN
filter Ag 0.6 um
G1200 channel
range keithley B 200 pA
range keithley C 200 nA
range keithley A 200 pA
Var_1: PsiC 0.000000
Var_2: PhiM0.000000
Bias CEM (V): 0.000000
Bias Keithley B (V): -30.000000
Name region: 

BEAR MONOCHROMATOR CONFIGURATION: 
Current Grating Position:     160137.80
Current Mirror Position: 298443.6
Current Grating: G1200
P2 phiz position:  0.0000
Mono axis position: 25.0000
Current Photon Energy (eV): 1500.015
Current Deviation Angle: 175.800
Vertical Exit Slits (um): 100.000
Exit slit y axis position: 1.3625
Horizontal Exit Slits (um):  889.156
Exit slit z axis position: 1.9229
Mitutoyo position (mm): 

Dose on sample (mJ/cm^2): NaN

ENERGY CALIBRATION:
offset grating G1200: yes
Delta 0 order G1200:  -1100.0
offset grating G1800: not
Delta 0 order G1800:  0.0
offset grating GNIM: not
Delta 0 order GNIM:  0.0
ZERO ORDER POSITIONS:
Grating G1200: Mirror position:  4938.0
Grating position: -105355.0
Grating G1800: 
Mirror position:  4938.0
Grating position: -106345.0
Grating GNIM: 
Mirror position:  10000.0
Grating position: 227300.0

Initial filter: Ag filter 0.6 um

EXPERIMENTAL CHAMBER CONFIGURATION: 
PsiC (deg):   -0.000186
Phi Analyzer (degrees): 89.993255
Theta Manipulator (degrees): -44.000040
Theta Analyzer (degrees): -135.001468
PhiM (degrees): -0.003077
XM (mm): -11.999075
YM (mm): 9.947225
ZM (mm): (Warning: for kinetic energy scans, 
this parameter is given in the scan settings) 
-6.001413
TiltM (°): 0.000138

ELECTRON ANALYZER CONFIGURATION: 
Current Kinetik energy (eV): 35.0
Mode: DE = COST
Pass Energy (eV):  100.000
CEM: ON
Bias Front-Back CEM (V): 3499.698
Bias Back-Collector CEM (V): 100.874
Bias Retard-Front CEM: 100.104COIL VALUES
Ix (amps):2.820
Iy (amps): 6.789
Iz (amps): 37.403

POLARIZATION SELECTOR CONFIGURATION:
Psi1 (rad): -0.001665535
Psi2 (rad): 0.001417093
Z min position (mm): 46.599650
DZ position (mm): 18.599100
Zmin 0 (mm): 65.700000
DZ0 (mm): 54.000000

BEAM SELECTOR CONFIGURATION:
Zmin position (mm): NaN
DZ position (mm): NaN
Y+ position (mm): NaN
Y- position (mm): NaN

CHANNEL ELECTRON MULTIPLIER CONFIGURATION:
CEM configured: OFF
Bias CEM: 0.000000

FLUORESCENCE DETECTOR CONFIGURATION:
Not configured

LUMINESCENCE MONOCHROMATOR CONFIGURATION:
Optical fiber position (mm): 0.000000
Optical fiber Switch inside: ON
Optical fiber Switch outside: ON
Monochromator wavelength (A): 0.000000
Limit Switches: ON

I0 MONITOR PARAMETERS:
I0 detector position(mm): NaN
Lower switch: OFF
Upper switch: OFF
Valve status:unread

PRESSURE PARAMETERS:
Monitor chamber pressure (mbar): 9.13e-10
Experimental chamber pressure -ION GAUGE-(mbar): 0.000000E+0

XMCD PARAMETERS:
Xmcd OFF
Xmcd Direction -
Xmcd current (A): 0.000000

Gated scan off

Instrument 1: AMMETER KEITHLEY 6517A B
Measure type: Current
range type: set range value
range value (ampere):  200 pA
Integration time:  set NPLC value
NPLC value: 10.000
Digital filter count: 2
SAMPLE BIAS (V): -30.000
Vsource: ON
Output Voltage value: 30.000
Vsource range: 1000 V

Range Keithley B changed to 20 nA

Range Keithley B changed to 200 pA

Range Keithley B changed to 20 nA

Range Keithley B changed to 200 pA

Keithley B Bias (V) changed to: 0.000000

Range Keithley B changed to 20 nA

Keithley B Bias (V) changed to: -30.000000

Range Keithley B changed to 200 pA

Range Keithley B changed to 20 nA

Range Keithley B changed to 200 pA

Range Keithley B changed to 20 nA

Range Keithley B changed to 200 pA

Instrument 2: AMMETER KEITHLEY 6517A A
Measure type: Current
range type: set range value
range value (ampere):  200 pA
Integration time:  set NPLC value
NPLC value: 10.000
Digital filter count: 2
Vsource: OFF
Output Voltage value: -0.000
Vsource range: 100 V
Trigger source: bus

Range Keithley A changed to 20 nA

Range Keithley A changed to 200 nA

Range Keithley A changed to 200 pA

Range Keithley A changed to 20 nA

Range Keithley A changed to 200 pA

Range Keithley A changed to 20 nA

Range Keithley A changed to 200 nA

Range Keithley A changed to 200 pA

Range Keithley A changed to 20 nA

Range Keithley A changed to 200 pA

Range Keithley A changed to 20 nA

Range Keithley A changed to 200 nA

Range Keithley A changed to 200 pA

Instrument 3: COUNTER ORTEC 996Integration time (sec): 1.000


Range Keithley C changed to 200 nA


Range Keithley C changed to 2 uA


Range Keithley C changed to 200 nA


________________________________________________________________________________

RelativeTime (msec)	Photon Energy	Var_1	Var_2	INSTR_1_Sample with Bias _(ampere ) 	INSTR_2_Monitor IM_(ampere)  	INSTR_3_Ortec 996 counts_(counts)	I_BPM_sum (Amps)	
________________________________________________________________________________

3.17678000E+5	9.80008599E+1	0.00000000E+0	0.00000000E+0	6.78300000E-11	4.65660000E-9	2.05100000E+3	8.94729810E-5
3.22512000E+5	9.89986334E+1	0.00000000E+0	0.00000000E+0	7.50900000E-11	4.83700000E-9	2.51800000E+3	8.92818796E-5
3.26569000E+5	9.99999835E+1	0.00000000E+0	0.00000000E+0	7.79600000E-11	4.99820000E-9	2.69000000E+3	8.94056993E-5
3.30621000E+5	1.01000083E+2	0.00000000E+0	0.00000000E+0	8.09800000E-11	5.14530000E-9	2.88100000E+3	8.94305932E-5
3.34626000E+5	1.02000498E+2	0.00000000E+0	0.00000000E+0	8.38400000E-11	5.31670000E-9	2.88100000E+3	8.94149470E-5
3.38634000E+5	1.03000229E+2	0.00000000E+0	0.00000000E+0	8.54400000E-11	5.52500000E-9	2.80800000E+3	8.90754299E-5
3.42686000E+5	1.04000140E+2	0.00000000E+0	0.00000000E+0	9.73800000E-11	5.74010000E-9	3.51400000E+3	8.92326223E-5
3.46731000E+5	1.04999881E+2	0.00000000E+0	0.00000000E+0	1.12350000E-10	5.96150000E-9	5.17500000E+3	8.96022754E-5
3.50795000E+5	1.05999984E+2	0.00000000E+0	0.00000000E+0	1.19320000E-10	6.20970000E-9	6.03300000E+3	8.92935710E-5
3.54817000E+5	1.07000368E+2	0.00000000E+0	0.00000000E+0	1.28660000E-10	6.49500000E-9	6.77600000E+3	8.93878000E-5
3.58832000E+5	1.08000044E+2	0.00000000E+0	0.00000000E+0	1.37050000E-10	6.78010000E-9	7.49700000E+3	8.95988452E-5
3.62731000E+5	1.08999141E+2	0.00000000E+0	0.00000000E+0	1.43920000E-10	7.03090000E-9	7.99400000E+3	8.93121200E-5
3.66657000E+5	1.10000202E+2	0.00000000E+0	0.00000000E+0	1.55150000E-10	7.30790000E-9	9.26500000E+3	8.92364966E-5
3.70550000E+5	1.11000394E+2	0.00000000E+0	0.00000000E+0	1.56750000E-10	7.53320000E-9	1.11320000E+4	8.91225653E-5
3.74453000E+5	1.11999412E+2	0.00000000E+0	0.00000000E+0	1.57710000E-10	7.75510000E-9	1.18080000E+4	8.93276291E-5
3.78352000E+5	1.13000721E+2	0.00000000E+0	0.00000000E+0	1.60370000E-10	7.98090000E-9	1.20140000E+4	8.95908820E-5
3.82232000E+5	1.14000116E+2	0.00000000E+0	0.00000000E+0	1.65290000E-10	8.19620000E-9	1.36230000E+4	8.92963605E-5
3.86099000E+5	1.14999624E+2	0.00000000E+0	0.00000000E+0	1.70480000E-10	8.39510000E-9	1.44060000E+4	8.91855823E-5
3.90018000E+5	1.16001166E+2	0.00000000E+0	0.00000000E+0	1.73280000E-10	8.58490000E-9	1.41970000E+4	8.91988056E-5
3.93905000E+5	1.17000055E+2	0.00000000E+0	0.00000000E+0	1.74900000E-10	8.75560000E-9	1.37440000E+4	8.93788802E-5
3.97743000E+5	1.18000415E+2	0.00000000E+0	0.00000000E+0	1.73860000E-10	8.88720000E-9	1.33360000E+4	8.93708663E-5
4.01647000E+5	1.19000149E+2	0.00000000E+0	0.00000000E+0	1.71210000E-10	8.97000000E-9	1.32860000E+4	8.92332213E-5
4.05535000E+5	1.20000224E+2	0.00000000E+0	0.00000000E+0	1.71630000E-10	9.01610000E-9	1.32770000E+4	8.97614735E-5
4.09416000E+5	1.21000226E+2	0.00000000E+0	0.00000000E+0	1.70910000E-10	9.04070000E-9	1.28130000E+4	8.93819677E-5
4.13306000E+5	1.21999435E+2	0.00000000E+0	0.00000000E+0	1.70330000E-10	9.05150000E-9	1.19060000E+4	8.93142836E-5
4.17178000E+5	1.23000657E+2	0.00000000E+0	0.00000000E+0	1.70210000E-10	9.04350000E-9	1.11230000E+4	8.92678516E-5
4.21060000E+5	1.23999392E+2	0.00000000E+0	0.00000000E+0	1.71190000E-10	9.01530000E-9	9.68400000E+3	8.93340277E-5
4.24950000E+5	1.25000297E+2	0.00000000E+0	0.00000000E+0	1.70550000E-10	8.97070000E-9	9.10900000E+3	8.91207384E-5
4.28817000E+5	1.25999343E+2	0.00000000E+0	0.00000000E+0	1.70290000E-10	8.90980000E-9	8.43600000E+3	8.91677396E-5
4.32690000E+5	1.27000184E+2	0.00000000E+0	0.00000000E+0	1.69330000E-10	8.82770000E-9	7.70100000E+3	8.96567958E-5
4.36446000E+5	1.27998325E+2	0.00000000E+0	0.00000000E+0	1.67470000E-10	8.72270000E-9	7.13600000E+3	8.92904269E-5
4.40214000E+5	1.29001457E+2	0.00000000E+0	0.00000000E+0	1.65620000E-10	8.59850000E-9	6.56200000E+3	8.90387999E-5
4.43979000E+5	1.29999119E+2	0.00000000E+0	0.00000000E+0	1.62950000E-10	8.45680000E-9	6.12900000E+3	8.89644192E-5
4.47755000E+5	1.31000819E+2	0.00000000E+0	0.00000000E+0	1.59870000E-10	8.29540000E-9	5.76200000E+3	8.92253654E-5
4.51498000E+5	1.31999564E+2	0.00000000E+0	0.00000000E+0	1.56120000E-10	8.11240000E-9	5.27100000E+3	8.95462202E-5
4.56112000E+5	1.33000741E+2	0.00000000E+0	0.00000000E+0	1.51420000E-10	7.90670000E-9	5.18500000E+3	8.92287510E-5
4.59913000E+5	1.33999188E+2	0.00000000E+0	0.00000000E+0	1.47320000E-10	7.67950000E-9	4.87600000E+3	8.90823560E-5
4.63671000E+5	1.35000153E+2	0.00000000E+0	0.00000000E+0	1.41110000E-10	7.43720000E-9	4.74500000E+3	8.92903911E-5
4.67425000E+5	1.36000132E+2	0.00000000E+0	0.00000000E+0	1.35450000E-10	7.18450000E-9	4.36700000E+3	8.91827302E-5
4.71173000E+5	1.37000254E+2	0.00000000E+0	0.00000000E+0	1.29550000E-10	6.92300000E-9	4.21400000E+3	8.92860757E-5
4.74925000E+5	1.37999433E+2	0.00000000E+0	0.00000000E+0	1.23980000E-10	6.65500000E-9	4.14100000E+3	8.92692434E-5
4.78676000E+5	1.39001489E+2	0.00000000E+0	0.00000000E+0	1.20340000E-10	6.37570000E-9	4.14300000E+3	8.93850403E-5
4.82396000E+5	1.39999276E+2	0.00000000E+0	0.00000000E+0	1.12310000E-10	6.08200000E-9	3.75800000E+3	8.91043769E-5
4.86176000E+5	1.41000130E+2	0.00000000E+0	0.00000000E+0	1.05780000E-10	5.76690000E-9	3.51900000E+3	8.91956495E-5
4.89928000E+5	1.41999899E+2	0.00000000E+0	0.00000000E+0	9.90500000E-11	5.43220000E-9	3.35500000E+3	8.90824663E-5
4.93705000E+5	1.43000246E+2	0.00000000E+0	0.00000000E+0	9.33900000E-11	5.08260000E-9	3.16800000E+3	8.94255715E-5
4.97451000E+5	1.43999666E+2	0.00000000E+0	0.00000000E+0	8.60200000E-11	4.72280000E-9	2.73200000E+3	8.91154366E-5
5.01196000E+5	1.44999896E+2	0.00000000E+0	0.00000000E+0	7.77100000E-11	4.36120000E-9	2.49400000E+3	8.90798377E-5
5.04963000E+5	1.46000675E+2	0.00000000E+0	0.00000000E+0	7.09600000E-11	4.00180000E-9	2.16200000E+3	8.90240299E-5
5.08761000E+5	1.46998757E+2	0.00000000E+0	0.00000000E+0	6.42400000E-11	3.65710000E-9	1.85400000E+3	8.89865564E-5
5.12503000E+5	1.48000650E+2	0.00000000E+0	0.00000000E+0	5.77600000E-11	3.32890000E-9	1.70000000E+3	8.91552704E-5
5.16260000E+5	1.49000106E+2	0.00000000E+0	0.00000000E+0	5.21100000E-11	3.02850000E-9	1.43500000E+3	8.88827102E-5
5.20009000E+5	1.49999850E+2	0.00000000E+0	0.00000000E+0	4.67900000E-11	2.75370000E-9	1.22200000E+3	8.94341605E-5
5.24427000E+5	1.50971228E+2	0.00000000E+0	0.00000000E+0	4.17300000E-11	2.46660000E-9	1.04400000E+3	8.93024849E-5
5.28863000E+5	1.52022761E+2	0.00000000E+0	0.00000000E+0	3.89100000E-11	2.29780000E-9	9.32000000E+2	8.93026905E-5
5.33298000E+5	1.53003860E+2	0.00000000E+0	0.00000000E+0	3.59300000E-11	2.12690000E-9	7.83000000E+2	8.95057099E-5
5.37714000E+5	1.54004500E+2	0.00000000E+0	0.00000000E+0	3.29700000E-11	1.96090000E-9	7.48000000E+2	8.92807024E-5
5.42192000E+5	1.54999105E+2	0.00000000E+0	0.00000000E+0	3.04600000E-11	1.80560000E-9	6.74000000E+2	8.92652380E-5
5.46627000E+5	1.55998363E+2	0.00000000E+0	0.00000000E+0	2.82600000E-11	1.67780000E-9	5.80000000E+2	8.93050181E-5
5.51086000E+5	1.56999323E+2	0.00000000E+0	0.00000000E+0	2.66000000E-11	1.55790000E-9	5.54000000E+2	8.96478998E-5
5.55522000E+5	1.57998064E+2	0.00000000E+0	0.00000000E+0	2.49300000E-11	1.45560000E-9	4.44000000E+2	8.93841224E-5
5.59960000E+5	1.59000913E+2	0.00000000E+0	0.00000000E+0	2.34800000E-11	1.36000000E-9	4.37000000E+2	8.91909884E-5
5.64379000E+5	1.59992173E+2	0.00000000E+0	0.00000000E+0	2.20100000E-11	1.27690000E-9	4.09000000E+2	8.92431068E-5
5.68819000E+5	1.60995488E+2	0.00000000E+0	0.00000000E+0	2.09200000E-11	1.21320000E-9	3.87000000E+2	8.94356953E-5
5.73261000E+5	1.62002764E+2	0.00000000E+0	0.00000000E+0	1.98100000E-11	1.15120000E-9	3.70000000E+2	8.94146847E-5
5.77694000E+5	1.63004006E+2	0.00000000E+0	0.00000000E+0	1.87100000E-11	1.08250000E-9	3.18000000E+2	8.94324320E-5
5.82111000E+5	1.64005856E+2	0.00000000E+0	0.00000000E+0	1.71100000E-11	9.99800000E-10	2.82000000E+2	8.94916492E-5
5.86527000E+5	1.65003891E+2	0.00000000E+0	0.00000000E+0	1.56100000E-11	9.16200000E-10	3.02000000E+2	8.94211339E-5
5.90957000E+5	1.66001222E+2	0.00000000E+0	0.00000000E+0	1.42100000E-11	8.35500000E-10	2.72000000E+2	8.93685328E-5
5.95374000E+5	1.66997701E+2	0.00000000E+0	0.00000000E+0	1.29200000E-11	7.66500000E-10	2.49000000E+2	8.95036476E-5
5.99789000E+5	1.67999427E+2	0.00000000E+0	0.00000000E+0	1.19400000E-11	7.08000000E-10	2.34000000E+2	8.92533439E-5
6.04265000E+5	1.68997505E+2	0.00000000E+0	0.00000000E+0	1.11000000E-11	6.58300000E-10	2.29000000E+2	8.94109892E-5
6.08721000E+5	1.69998096E+2	0.00000000E+0	0.00000000E+0	1.03800000E-11	6.16100000E-10	1.88000000E+2	8.91931134E-5
6.13139000E+5	1.70992507E+2	0.00000000E+0	0.00000000E+0	9.84000000E-12	5.83500000E-10	1.96000000E+2	8.95035612E-5
6.17627000E+5	1.71996774E+2	0.00000000E+0	0.00000000E+0	9.41000000E-12	5.60500000E-10	1.73000000E+2	8.92342942E-5
6.22082000E+5	1.73007323E+2	0.00000000E+0	0.00000000E+0	9.02000000E-12	5.35000000E-10	1.45000000E+2	8.97048044E-5
6.26536000E+5	1.74003428E+2	0.00000000E+0	0.00000000E+0	8.36000000E-12	5.06300000E-10	1.13000000E+2	8.91667264E-5
6.30985000E+5	1.75002764E+2	0.00000000E+0	0.00000000E+0	7.96000000E-12	4.76500000E-10	1.08000000E+2	8.92181831E-5
6.35423000E+5	1.76002811E+2	0.00000000E+0	0.00000000E+0	7.41000000E-12	4.47000000E-10	1.07000000E+2	8.93005180E-5
6.39838000E+5	1.77001179E+2	0.00000000E+0	0.00000000E+0	7.12000000E-12	4.20200000E-10	9.20000000E+1	8.94255417E-5
6.44267000E+5	1.77995100E+2	0.00000000E+0	0.00000000E+0	6.66000000E-12	4.00100000E-10	9.40000000E+1	8.91927319E-5
6.48685000E+5	1.78999689E+2	0.00000000E+0	0.00000000E+0	6.43000000E-12	3.84500000E-10	9.00000000E+1	8.93987136E-5
6.53153000E+5	1.79997584E+2	0.00000000E+0	0.00000000E+0	6.20000000E-12	3.71800000E-10	8.90000000E+1	8.90293585E-5
6.57581000E+5	1.80995148E+2	0.00000000E+0	0.00000000E+0	5.97000000E-12	3.61700000E-10	8.90000000E+1	8.92399864E-5
6.62056000E+5	1.81993637E+2	0.00000000E+0	0.00000000E+0	6.00000000E-12	3.56000000E-10	7.20000000E+1	8.92856019E-5
6.67213000E+5	1.83002209E+2	0.00000000E+0	0.00000000E+0	5.79000000E-12	3.51100000E-10	8.10000000E+1	8.91536223E-5
6.71635000E+5	1.84008704E+2	0.00000000E+0	0.00000000E+0	5.69000000E-12	3.44300000E-10	8.00000000E+1	8.93242674E-5
6.76049000E+5	1.85002506E+2	0.00000000E+0	0.00000000E+0	5.59000000E-12	3.36800000E-10	7.10000000E+1	8.93314081E-5
6.80474000E+5	1.86003649E+2	0.00000000E+0	0.00000000E+0	5.39000000E-12	3.29200000E-10	9.40000000E+1	8.91343163E-5
6.84869000E+5	1.87002415E+2	0.00000000E+0	0.00000000E+0	5.29000000E-12	3.22500000E-10	7.40000000E+1	8.92624157E-5
6.89337000E+5	1.87997913E+2	0.00000000E+0	0.00000000E+0	5.11000000E-12	3.17800000E-10	5.70000000E+1	8.93537240E-5
6.93760000E+5	1.88992712E+2	0.00000000E+0	0.00000000E+0	5.03000000E-12	3.14400000E-10	7.80000000E+1	8.92969715E-5
6.98179000E+5	1.89998471E+2	0.00000000E+0	0.00000000E+0	5.21000000E-12	3.12300000E-10	8.00000000E+1	8.92368125E-5
7.02618000E+5	1.91000604E+2	0.00000000E+0	0.00000000E+0	4.95000000E-12	3.11200000E-10	6.10000000E+1	8.92565089E-5
7.07041000E+5	1.91993630E+2	0.00000000E+0	0.00000000E+0	4.94000000E-12	3.11400000E-10	8.80000000E+1	8.91960101E-5
7.11469000E+5	1.92995717E+2	0.00000000E+0	0.00000000E+0	5.02000000E-12	3.13100000E-10	6.10000000E+1	8.92701911E-5
7.15881000E+5	1.94008159E+2	0.00000000E+0	0.00000000E+0	5.01000000E-12	3.13700000E-10	6.60000000E+1	8.91008304E-5
7.20325000E+5	1.95001813E+2	0.00000000E+0	0.00000000E+0	4.94000000E-12	3.13200000E-10	5.10000000E+1	8.90423583E-5
7.24766000E+5	1.96004774E+2	0.00000000E+0	0.00000000E+0	4.96000000E-12	3.11600000E-10	4.90000000E+1	8.92303692E-5
7.29194000E+5	1.97003976E+2	0.00000000E+0	0.00000000E+0	4.92000000E-12	3.09200000E-10	4.70000000E+1	8.91246157E-5
7.33635000E+5	1.97999164E+2	0.00000000E+0	0.00000000E+0	4.86000000E-12	3.07200000E-10	5.10000000E+1	8.95083922E-5
7.38120000E+5	1.98995294E+2	0.00000000E+0	0.00000000E+0	4.89000000E-12	3.05800000E-10	5.00000000E+1	8.91953843E-5
7.42586000E+5	1.99998423E+2	0.00000000E+0	0.00000000E+0	4.70000000E-12	3.04800000E-10	6.60000000E+1	8.90075820E-5
7.47014000E+5	2.00996132E+2	0.00000000E+0	0.00000000E+0	4.73000000E-12	3.05400000E-10	6.10000000E+1	8.93770861E-5
7.51431000E+5	2.01997583E+2	0.00000000E+0	0.00000000E+0	4.86000000E-12	3.06600000E-10	5.50000000E+1	8.94117253E-5
7.55893000E+5	2.02994623E+2	0.00000000E+0	0.00000000E+0	4.85000000E-12	3.08900000E-10	4.70000000E+1	8.95113783E-5
7.60367000E+5	2.04003689E+2	0.00000000E+0	0.00000000E+0	4.84000000E-12	3.11400000E-10	6.50000000E+1	8.98458409E-5
7.64837000E+5	2.05006296E+2	0.00000000E+0	0.00000000E+0	4.99000000E-12	3.12900000E-10	5.10000000E+1	8.94430386E-5
7.69288000E+5	2.06007547E+2	0.00000000E+0	0.00000000E+0	4.95000000E-12	3.14100000E-10	4.40000000E+1	8.91288029E-5
7.73725000E+5	2.07000313E+2	0.00000000E+0	0.00000000E+0	4.94000000E-12	3.15000000E-10	5.30000000E+1	8.94821393E-5
7.78180000E+5	2.08004141E+2	0.00000000E+0	0.00000000E+0	5.00000000E-12	3.15700000E-10	4.90000000E+1	8.95424920E-5
7.82608000E+5	2.08992417E+2	0.00000000E+0	0.00000000E+0	5.03000000E-12	3.17000000E-10	5.90000000E+1	8.93285113E-5
7.87051000E+5	2.10002554E+2	0.00000000E+0	0.00000000E+0	5.01000000E-12	3.18400000E-10	6.70000000E+1	8.97498715E-5
7.91471000E+5	2.10993171E+2	0.00000000E+0	0.00000000E+0	4.97000000E-12	3.19700000E-10	5.70000000E+1	8.92965364E-5
7.95909000E+5	2.12000387E+2	0.00000000E+0	0.00000000E+0	5.10000000E-12	3.21300000E-10	5.60000000E+1	8.90248762E-5
8.00359000E+5	2.12995679E+2	0.00000000E+0	0.00000000E+0	5.02000000E-12	3.23300000E-10	6.60000000E+1	8.92652767E-5
8.04802000E+5	2.13995619E+2	0.00000000E+0	0.00000000E+0	5.09000000E-12	3.25800000E-10	5.50000000E+1	8.92611968E-5
8.09199000E+5	2.15009161E+2	0.00000000E+0	0.00000000E+0	5.10000000E-12	3.27000000E-10	5.30000000E+1	8.96515178E-5
8.13628000E+5	2.16005629E+2	0.00000000E+0	0.00000000E+0	5.01000000E-12	3.26200000E-10	5.20000000E+1	8.93388795E-5
8.18115000E+5	2.17002954E+2	0.00000000E+0	0.00000000E+0	5.06000000E-12	3.23800000E-10	5.10000000E+1	8.92195450E-5
8.22575000E+5	2.18003123E+2	0.00000000E+0	0.00000000E+0	5.05000000E-12	3.20200000E-10	5.90000000E+1	8.93427985E-5
8.27018000E+5	2.18997388E+2	0.00000000E+0	0.00000000E+0	4.91000000E-12	3.16700000E-10	5.20000000E+1	8.93524425E-5
8.31503000E+5	2.19996788E+2	0.00000000E+0	0.00000000E+0	4.90000000E-12	3.14000000E-10	6.10000000E+1	8.96241325E-5
8.35937000E+5	2.20999318E+2	0.00000000E+0	0.00000000E+0	4.92000000E-12	3.11800000E-10	6.80000000E+1	8.95932453E-5
8.40385000E+5	2.21996264E+2	0.00000000E+0	0.00000000E+0	4.67000000E-12	3.10300000E-10	6.70000000E+1	8.94598114E-5
8.44822000E+5	2.22994227E+2	0.00000000E+0	0.00000000E+0	4.81000000E-12	3.10000000E-10	6.60000000E+1	8.90737729E-5
8.49266000E+5	2.23989900E+2	0.00000000E+0	0.00000000E+0	4.82000000E-12	3.11700000E-10	5.90000000E+1	8.96091806E-5
8.53705000E+5	2.25009547E+2	0.00000000E+0	0.00000000E+0	4.79000000E-12	3.13000000E-10	5.40000000E+1	8.93122780E-5
8.58161000E+5	2.26005212E+2	0.00000000E+0	0.00000000E+0	4.86000000E-12	3.13000000E-10	7.90000000E+1	8.94570159E-5
8.62621000E+5	2.27005426E+2	0.00000000E+0	0.00000000E+0	4.77000000E-12	3.12300000E-10	5.20000000E+1	8.94933718E-5
8.67035000E+5	2.28008824E+2	0.00000000E+0	0.00000000E+0	4.86000000E-12	3.11300000E-10	4.00000000E+1	8.94024568E-5
8.71427000E+5	2.28995613E+2	0.00000000E+0	0.00000000E+0	4.78000000E-12	3.11200000E-10	4.90000000E+1	8.92648267E-5
8.75868000E+5	2.29996656E+2	0.00000000E+0	0.00000000E+0	4.76000000E-12	3.12000000E-10	5.10000000E+1	8.91025947E-5
8.80278000E+5	2.30998827E+2	0.00000000E+0	0.00000000E+0	4.80000000E-12	3.13500000E-10	4.80000000E+1	8.93775540E-5
8.84702000E+5	2.31997698E+2	0.00000000E+0	0.00000000E+0	4.90000000E-12	3.16500000E-10	4.80000000E+1	8.93251555E-5
8.89923000E+5	2.32994640E+2	0.00000000E+0	0.00000000E+0	4.97000000E-12	3.20900000E-10	4.90000000E+1	8.95684468E-5
8.94354000E+5	2.33993018E+2	0.00000000E+0	0.00000000E+0	4.90000000E-12	3.26300000E-10	4.70000000E+1	8.93127488E-5
8.98791000E+5	2.35002047E+2	0.00000000E+0	0.00000000E+0	5.11000000E-12	3.31700000E-10	5.10000000E+1	8.93928843E-5
9.03232000E+5	2.36007540E+2	0.00000000E+0	0.00000000E+0	5.18000000E-12	3.36300000E-10	4.70000000E+1	8.95000535E-5
9.07665000E+5	2.37009526E+2	0.00000000E+0	0.00000000E+0	5.19000000E-12	3.40400000E-10	4.90000000E+1	8.96487909E-5
9.12112000E+5	2.38003784E+2	0.00000000E+0	0.00000000E+0	5.19000000E-12	3.44500000E-10	3.30000000E+1	8.93677073E-5
9.16545000E+5	2.38998413E+2	0.00000000E+0	0.00000000E+0	5.32000000E-12	3.48800000E-10	5.50000000E+1	8.93693881E-5
9.20983000E+5	2.40000977E+2	0.00000000E+0	0.00000000E+0	5.33000000E-12	3.53800000E-10	3.20000000E+1	8.91839879E-5
9.25456000E+5	2.40999278E+2	0.00000000E+0	0.00000000E+0	5.36000000E-12	3.59300000E-10	5.20000000E+1	8.90715884E-5
9.29938000E+5	2.41993360E+2	0.00000000E+0	0.00000000E+0	5.55000000E-12	3.65300000E-10	5.90000000E+1	8.91752916E-5
9.34367000E+5	2.42996637E+2	0.00000000E+0	0.00000000E+0	5.56000000E-12	3.71900000E-10	4.50000000E+1	8.92263698E-5
9.38809000E+5	2.43994360E+2	0.00000000E+0	0.00000000E+0	5.70000000E-12	3.79100000E-10	5.00000000E+1	8.90473055E-5
9.43227000E+5	2.44999959E+2	0.00000000E+0	0.00000000E+0	5.80000000E-12	3.87000000E-10	5.30000000E+1	8.89348643E-5
9.47699000E+5	2.46006614E+2	0.00000000E+0	0.00000000E+0	5.88000000E-12	3.94200000E-10	6.20000000E+1	8.92133342E-5
9.52137000E+5	2.47004018E+2	0.00000000E+0	0.00000000E+0	5.96000000E-12	4.00700000E-10	5.10000000E+1	8.89862584E-5
9.56566000E+5	2.48003168E+2	0.00000000E+0	0.00000000E+0	6.00000000E-12	4.06600000E-10	5.60000000E+1	8.91966956E-5
9.61009000E+5	2.49001078E+2	0.00000000E+0	0.00000000E+0	6.10000000E-12	4.12000000E-10	5.90000000E+1	8.90518801E-5
9.65434000E+5	2.49997631E+2	0.00000000E+0	0.00000000E+0	6.13000000E-12	4.17600000E-10	5.90000000E+1	8.91202765E-5
9.69289000E+5	2.51000887E+2	0.00000000E+0	0.00000000E+0	6.15000000E-12	4.16500000E-10	5.10000000E+1	8.91904460E-5
9.73123000E+5	2.51996438E+2	0.00000000E+0	0.00000000E+0	6.13000000E-12	4.15100000E-10	6.10000000E+1	8.93789875E-5
9.76994000E+5	2.53002788E+2	0.00000000E+0	0.00000000E+0	6.05000000E-12	4.13700000E-10	5.10000000E+1	8.92098682E-5
9.80827000E+5	2.53999451E+2	0.00000000E+0	0.00000000E+0	6.03000000E-12	4.12100000E-10	5.30000000E+1	8.91611742E-5
9.84654000E+5	2.54997159E+2	0.00000000E+0	0.00000000E+0	6.08000000E-12	4.11600000E-10	5.30000000E+1	8.95891445E-5
9.88517000E+5	2.56002569E+2	0.00000000E+0	0.00000000E+0	5.83000000E-12	4.10300000E-10	4.20000000E+1	8.94063997E-5
9.92363000E+5	2.57000679E+2	0.00000000E+0	0.00000000E+0	5.99000000E-12	4.08500000E-10	4.50000000E+1	8.96492081E-5
9.96253000E+5	2.57999772E+2	0.00000000E+0	0.00000000E+0	5.78000000E-12	4.06700000E-10	4.20000000E+1	8.94868838E-5
1.00009600E+6	2.59001852E+2	0.00000000E+0	0.00000000E+0	5.82000000E-12	4.05000000E-10	4.20000000E+1	8.92168300E-5
1.00397200E+6	2.59998984E+2	0.00000000E+0	0.00000000E+0	5.77000000E-12	4.03600000E-10	5.00000000E+1	8.92866390E-5
