G:\BEAR_storage\User_Experiments\20220108_arneodo\file(1)_Region 5__0019.txt
Ring Energy (GeV): 2
Lifetime (hours): 17.3036
Scan beginning: 8/2/2022	9:25:18 AM
Ring current (mA): 308.79
Source position: x (mm): -0.003 x' (mrad): 0.003 y (mm): -0.006 y' (mrad): 0
Scan end: 8/2/2022	9:53:33 AM
Ring current (mA): 308.04
Source position: x (mm): -0.004 x' (mrad): 0.003 y (mm): -0.006 y' (mrad): 0.001

SCAN TYPE: PHOTON ENERGY VS VAR_1 VS VAR_2

FILE INFO: FILE INFO:

SCAN PARAMETERS
waiting time (ms): 1000
Number of scans: 1
Current scan number: 1
DARK OFF 
PREDARK OFF 

SCAN PARAMETERS
Regions configuration: 
number of regions: 6
Mirror grating scan: on
Timed acquisition: off
Region 1:
Initial energy (eV): 40.000000
Final energy (eV): 72.000000
Delta energy (eV): 1.000000
Deviation angle choice: Higher order rejection
Deviation angle (°): NaN
Al filter
G1200 channel
range keithley B 20 nA
range keithley C 2 uA
range keithley A 20 nA
Var_1: XM3.000000
Var_2: YM15.000000
Bias CEM (V): 0.000000
Bias Keithley B (V): -30.000000
Name region: 
Region 2:
Initial energy (eV): 70.000000
Final energy (eV): 102.000000
Delta energy (eV): 1.000000
Deviation angle choice: Higher order rejection
Deviation angle (°): NaN
Si filter
G1200 channel
range keithley B 200 nA
range keithley C 20 uA
range keithley A 20 nA
Var_1: XM3.000000
Var_2: YM15.000000
Bias CEM (V): 0.000000
Bias Keithley B (V): -30.000000
Name region: 
Region 3:
Initial energy (eV): 98.000000
Final energy (eV): 260.000000
Delta energy (eV): 1.000000
Deviation angle choice: Higher order rejection
Deviation angle (°): NaN
Full Beam
G1200 channel
range keithley B 200 nA
range keithley C 20 uA
range keithley A 200 nA
Var_1: XM3.000000
Var_2: YM15.000000
Bias CEM (V): 0.000000
Bias Keithley B (V): -30.000000
Name region: 
Region 4:
Initial energy (eV): 255.000000
Final energy (eV): 320.000000
Delta energy (eV): 1.000000
Deviation angle choice: Higher order rejection
Deviation angle (°): NaN
filter Ag 0.6 um
G1200 channel
range keithley B 200 pA
range keithley C 2 uA
range keithley A 200 nA
Var_1: XM3.000000
Var_2: YM15.000000
Bias CEM (V): 0.000000
Bias Keithley B (V): -30.000000
Name region: 
Region 5:
Initial energy (eV): 315.000000
Final energy (eV): 1200.000000
Delta energy (eV): 5.000000
Deviation angle choice: Higher order rejection
Deviation angle (°): NaN
Full Beam
G1200 channel
range keithley B 20 nA
range keithley C 20 uA
range keithley A 200 nA
Var_1: XM3.000000
Var_2: YM15.000000
Bias CEM (V): 0.000000
Bias Keithley B (V): -30.000000
Name region: 
Region 6:
Initial energy (eV): 1190.000000
Final energy (eV): 1500.000000
Delta energy (eV): 5.000000
Deviation angle choice: Higher order rejection
Deviation angle (°): NaN
filter Ag 0.6 um
G1200 channel
range keithley B 200 pA
range keithley C 2 uA
range keithley A 200 nA
Var_1: XM3.000000
Var_2: YM15.000000
Bias CEM (V): 0.000000
Bias Keithley B (V): -30.000000
Name region: 

BEAR MONOCHROMATOR CONFIGURATION: 
Current Grating Position:     160137.60
Current Mirror Position: 298443.4
Current Grating: G1200
P2 phiz position:  0.0000
Mono axis position: 25.0000
Current Photon Energy (eV): 1500.012
Current Deviation Angle: 175.800
Vertical Exit Slits (um): 450.000
Exit slit y axis position: 2.2375
Horizontal Exit Slits (um):  890.000
Exit slit z axis position: 1.9250
Mitutoyo position (mm): 

Dose on sample (mJ/cm^2): NaN

ENERGY CALIBRATION:
offset grating G1200: yes
Delta 0 order G1200:  -500.0
offset grating G1800: not
Delta 0 order G1800:  0.0
offset grating GNIM: not
Delta 0 order GNIM:  0.0
ZERO ORDER POSITIONS:
Grating G1200: Mirror position:  4938.0
Grating position: -105355.0
Grating G1800: 
Mirror position:  4938.0
Grating position: -106345.0
Grating GNIM: 
Mirror position:  10000.0
Grating position: 227300.0

Initial filter: Ag filter 0.6 um

EXPERIMENTAL CHAMBER CONFIGURATION: 
PsiC (deg):   0.036413
Phi Analyzer (degrees): -0.009471
Theta Manipulator (degrees): -45.000040
Theta Analyzer (degrees): -0.000455
PhiM (degrees): -0.006155
XM (mm): 2.999938
YM (mm): 14.999863
ZM (mm): (Warning: for kinetic energy scans, 
this parameter is given in the scan settings) 
-8.300075
TiltM (°): -0.000275

COIL VALUES
Ix (amps):2.950
Iy (amps): 6.790
Iz (amps): 14.440

POLARIZATION SELECTOR CONFIGURATION:
Psi1 (rad): -0.001665535
Psi2 (rad): 0.001417093
Z min position (mm): 46.599650
DZ position (mm): 18.599100
Zmin 0 (mm): 66.500000
DZ0 (mm): 53.000000

BEAM SELECTOR CONFIGURATION:
Zmin position (mm): 158.000000
DZ position (mm): 264.000000
Y+ position (mm): 291.700000
Y- position (mm): NaN

CHANNEL ELECTRON MULTIPLIER CONFIGURATION:
CEM configured: OFF
Bias CEM: 0.000000

FLUORESCENCE DETECTOR CONFIGURATION:
Not configured

LUMINESCENCE MONOCHROMATOR CONFIGURATION:
Optical fiber position (mm): 0.000000
Optical fiber Switch inside: OFF
Optical fiber Switch outside: ON
Monochromator wavelength (A): 229000.000000
Limit Switches: OFF

I0 MONITOR PARAMETERS:
I0 detector position(mm): 1.924999E+2
Lower switch: OFF
Upper switch: OFF
Valve status:open

PRESSURE PARAMETERS:
Monitor chamber pressure (mbar): 1.273e-09
Experimental chamber pressure -ION GAUGE-(mbar): 0.000000E+0

XMCD PARAMETERS:
Xmcd OFF
Xmcd Direction -
Xmcd current (A): 0.000000

Gated scan on
Shutter open time (ms): 689890755
Shutter aperture time (ms): -43147589

Instrument 1: AMMETER KEITHLEY 6517A B
Measure type: Current
range type: set range value
range value (ampere):  200 pA
Integration time:  set NPLC value
NPLC value: 10.000
Digital filter count: 2
SAMPLE BIAS (V): -30.000
Vsource: ON
Output Voltage value: 30.000
Vsource range: 1000 V

Range Keithley B changed to 20 nA

Range Keithley B changed to 200 pA

Range Keithley B changed to 20 nA

Range Keithley B changed to 200 pA

Range Keithley B changed to 20 nA

Range Keithley B changed to 200 pA

Range Keithley B changed to 20 nA

Range Keithley B changed to 200 pA

Range Keithley B changed to 20 nA

Range Keithley B changed to 200 nA

Range Keithley B changed to 20 nA

Range Keithley B changed to 200 nA

Range Keithley B changed to 200 pA

Range Keithley B changed to 20 nA

Range Keithley B changed to 200 pA

Range Keithley B changed to 20 nA

Range Keithley B changed to 200 pA

Range Keithley B changed to 20 nA

Range Keithley B changed to 200 pA

Range Keithley B changed to 20 nA

Range Keithley B changed to 200 pA

Range Keithley B changed to 20 nA

Range Keithley B changed to 200 pA

Range Keithley B changed to 20 nA

Range Keithley B changed to 200 nA

Range Keithley B changed to 200 pA

Range Keithley B changed to 20 nA

Range Keithley B changed to 200 pA

Range Keithley B changed to 20 nA

Range Keithley B changed to 200 nA

Range Keithley B changed to 200 pA

Range Keithley B changed to 20 nA

Range Keithley B changed to 200 pA

Instrument 2: AMMETER KEITHLEY 6517A A
Measure type: Current
range type: set range value
range value (ampere):  20 nA
Integration time:  set NPLC value
NPLC value: 10.000
Digital filter count: 2
Vsource: OFF
Output Voltage value: -0.000
Vsource range: 100 V
Trigger source: bus

Range Keithley A changed to 200 nA

Range Keithley A changed to 200 pA

Range Keithley A changed to 20 nA

Range Keithley A changed to 200 nA

Range Keithley A changed to 20 nA

Range Keithley A changed to 200 nA

Range Keithley A changed to 20 nA

Range Keithley A changed to 200 nA

Range Keithley A changed to 200 pA

Range Keithley A changed to 20 nA

Range Keithley A changed to 200 pA

Range Keithley A changed to 20 nA

Range Keithley A changed to 200 pA

Range Keithley A changed to 20 nA

Range Keithley A changed to 200 pA

Range Keithley A changed to 20 nA

Range Keithley A changed to 200 pA

Range Keithley A changed to 20 nA

Range Keithley A changed to 200 pA

Range Keithley A changed to 20 nA

Range Keithley A changed to 200 nA

Range Keithley A changed to 20 nA

Range Keithley A changed to 200 nA

Instrument 3: AMMETER KEITHLEY 6517A C 
Measure type: Current
range type: set range value
range value (ampere):  2 uA
Integration time:  set NPLC value
NPLC value: 10.000
Digital filter count: 2
Vsource: OFF
Output Voltage value: -0.000
Vsource range: 100 V
Trigger source: bus


Range Keithley C changed to 20 uA


Range Keithley C changed to 2 uA


Range Keithley C changed to 20 uA


Range Keithley C changed to 2 uA


Range Keithley C changed to 20 uA


Range Keithley C changed to 2 uA


________________________________________________________________________________

RelativeTime (msec)	Photon Energy	Var_1	Var_2	INSTR_1_Sample with Bias _(ampere ) 	INSTR_2_Monitor IM_(ampere)  	INSTR_3_Diode A3_(ampere)	I_BPM_sum (Amps)	
________________________________________________________________________________

1.07624000E+6	3.14986740E+2	3.00000000E+0	1.50000000E+1	6.60000000E-13	6.34790000E-9	1.59050000E-7	8.94444304E-5
1.08113800E+6	3.20016756E+2	3.00000000E+0	1.50000000E+1	8.00000000E-13	6.45360000E-9	1.89930000E-7	8.93252360E-5
1.08482500E+6	3.24993760E+2	3.00000000E+0	1.50000000E+1	8.00000000E-13	6.44880000E-9	1.93770000E-7	8.96686095E-5
1.08860200E+6	3.30001894E+2	3.00000000E+0	1.50000000E+1	5.20000000E-13	6.28720000E-9	1.87970000E-7	8.96716821E-5
1.09240500E+6	3.34984343E+2	3.00000000E+0	1.50000000E+1	5.90000000E-13	6.33570000E-9	1.95240000E-7	8.91262071E-5
1.09614000E+6	3.39988279E+2	3.00000000E+0	1.50000000E+1	6.50000000E-13	6.48410000E-9	2.11270000E-7	8.92638700E-5
1.10054300E+6	3.45002450E+2	3.00000000E+0	1.50000000E+1	6.60000000E-13	6.53120000E-9	2.23110000E-7	8.94157844E-5
1.10429600E+6	3.50030541E+2	3.00000000E+0	1.50000000E+1	5.10000000E-13	6.34340000E-9	2.21380000E-7	8.94590067E-5
1.10824500E+6	3.55010208E+2	3.00000000E+0	1.50000000E+1	5.80000000E-13	6.41160000E-9	2.25160000E-7	8.94517111E-5
1.11221600E+6	3.59986332E+2	3.00000000E+0	1.50000000E+1	6.40000000E-13	6.76160000E-9	2.37870000E-7	8.94255894E-5
1.11611100E+6	3.64964049E+2	3.00000000E+0	1.50000000E+1	9.20000000E-13	7.14580000E-9	2.51920000E-7	8.95675468E-5
1.12001800E+6	3.70011922E+2	3.00000000E+0	1.50000000E+1	6.40000000E-13	7.45860000E-9	2.64540000E-7	8.90791791E-5
1.12395200E+6	3.75041423E+2	3.00000000E+0	1.50000000E+1	8.00000000E-13	7.57130000E-9	2.73220000E-7	8.92535197E-5
1.12788600E+6	3.79983384E+2	3.00000000E+0	1.50000000E+1	3.30000000E-13	7.73470000E-9	2.86360000E-7	8.91778456E-5
1.13182800E+6	3.84975302E+2	3.00000000E+0	1.50000000E+1	7.60000000E-13	8.05710000E-9	3.05640000E-7	8.94057768E-5
1.13574900E+6	3.89990417E+2	3.00000000E+0	1.50000000E+1	4.40000000E-13	8.45740000E-9	3.26800000E-7	8.89746236E-5
1.13964300E+6	3.95026179E+2	3.00000000E+0	1.50000000E+1	8.70000000E-13	8.72670000E-9	3.43880000E-7	8.96882224E-5
1.14355800E+6	4.00024810E+2	3.00000000E+0	1.50000000E+1	5.20000000E-13	8.81780000E-9	3.54950000E-7	8.93686461E-5
1.14748100E+6	4.04995093E+2	3.00000000E+0	1.50000000E+1	7.00000000E-13	8.79390000E-9	3.50490000E-7	8.93306809E-5
1.15141000E+6	4.09957409E+2	3.00000000E+0	1.50000000E+1	5.90000000E-13	9.20800000E-9	3.59420000E-7	8.97215831E-5
1.15533200E+6	4.14985466E+2	3.00000000E+0	1.50000000E+1	5.20000000E-13	9.55570000E-9	3.61570000E-7	8.92108040E-5
1.15927600E+6	4.20039000E+2	3.00000000E+0	1.50000000E+1	6.30000000E-13	1.01797000E-8	3.96710000E-7	8.93322902E-5
1.16319900E+6	4.25014831E+2	3.00000000E+0	1.50000000E+1	3.60000000E-13	1.06823000E-8	4.46330000E-7	8.88593064E-5
1.16710800E+6	4.29970350E+2	3.00000000E+0	1.50000000E+1	6.90000000E-13	1.11167000E-8	4.92700000E-7	8.90905367E-5
1.17101300E+6	4.34974021E+2	3.00000000E+0	1.50000000E+1	5.90000000E-13	1.16436000E-8	5.36280000E-7	8.92309534E-5
1.17495000E+6	4.40006858E+2	3.00000000E+0	1.50000000E+1	6.60000000E-13	1.22041000E-8	5.75570000E-7	8.95113903E-5
1.17884600E+6	4.45046190E+2	3.00000000E+0	1.50000000E+1	6.90000000E-13	1.26062000E-8	6.05750000E-7	8.93082099E-5
1.18277900E+6	4.49982055E+2	3.00000000E+0	1.50000000E+1	8.60000000E-13	1.30696000E-8	6.36450000E-7	8.92665254E-5
1.18644700E+6	4.54992144E+2	3.00000000E+0	1.50000000E+1	7.30000000E-13	1.32427000E-8	6.53120000E-7	8.91373592E-5
1.19008300E+6	4.59995265E+2	3.00000000E+0	1.50000000E+1	5.50000000E-13	1.34738000E-8	6.73570000E-7	8.92277615E-5
1.19383800E+6	4.64964867E+2	3.00000000E+0	1.50000000E+1	1.00000000E-12	1.37288000E-8	6.94970000E-7	8.94110041E-5
1.19748700E+6	4.70020947E+2	3.00000000E+0	1.50000000E+1	5.10000000E-13	1.39250000E-8	7.13610000E-7	8.93225389E-5
1.20112500E+6	4.75034060E+2	3.00000000E+0	1.50000000E+1	6.70000000E-13	1.40359000E-8	7.28710000E-7	8.92729806E-5
1.20477400E+6	4.80008124E+2	3.00000000E+0	1.50000000E+1	5.40000000E-13	1.41875000E-8	7.46150000E-7	8.90693562E-5
1.20842100E+6	4.84990035E+2	3.00000000E+0	1.50000000E+1	8.80000000E-13	1.44359000E-8	7.68280000E-7	8.94132929E-5
1.21217700E+6	4.89975661E+2	3.00000000E+0	1.50000000E+1	8.20000000E-13	1.46973000E-8	7.91080000E-7	8.96203953E-5
1.21590400E+6	4.94980456E+2	3.00000000E+0	1.50000000E+1	7.40000000E-13	1.49174000E-8	8.11990000E-7	8.91200977E-5
1.21969500E+6	4.99978869E+2	3.00000000E+0	1.50000000E+1	3.10000000E-13	1.50994000E-8	8.31350000E-7	8.92416047E-5
1.22343600E+6	5.05022456E+2	3.00000000E+0	1.50000000E+1	4.40000000E-13	1.51437000E-8	8.44540000E-7	8.94704240E-5
1.22720100E+6	5.10023526E+2	3.00000000E+0	1.50000000E+1	8.90000000E-13	1.49950000E-8	8.48090000E-7	8.90474098E-5
1.23086100E+6	5.15004301E+2	3.00000000E+0	1.50000000E+1	7.80000000E-13	1.46843000E-8	8.42120000E-7	8.92859744E-5
1.23465800E+6	5.19991291E+2	3.00000000E+0	1.50000000E+1	5.60000000E-13	1.42107000E-8	8.25240000E-7	8.91851382E-5
1.23830100E+6	5.24977347E+2	3.00000000E+0	1.50000000E+1	9.50000000E-13	1.35781000E-8	7.97040000E-7	8.90655236E-5
1.24194800E+6	5.30008142E+2	3.00000000E+0	1.50000000E+1	5.80000000E-13	1.30595000E-8	7.73670000E-7	8.93070596E-5
1.24568700E+6	5.34969474E+2	3.00000000E+0	1.50000000E+1	4.40000000E-13	1.38376000E-8	8.26510000E-7	8.91763883E-5
1.24931800E+6	5.40036706E+2	3.00000000E+0	1.50000000E+1	6.10000000E-13	1.47521000E-8	8.83210000E-7	8.93642115E-5
1.25312400E+6	5.45001481E+2	3.00000000E+0	1.50000000E+1	6.30000000E-13	1.64604000E-8	9.15490000E-7	8.96570521E-5
1.25688600E+6	5.50008350E+2	3.00000000E+0	1.50000000E+1	5.60000000E-13	1.71055000E-8	8.73550000E-7	8.96396237E-5
1.26064700E+6	5.54988114E+2	3.00000000E+0	1.50000000E+1	9.40000000E-13	1.80479000E-8	9.33590000E-7	8.93975841E-5
1.26431400E+6	5.60003959E+2	3.00000000E+0	1.50000000E+1	5.70000000E-13	1.87671000E-8	1.04161000E-6	8.98173469E-5
1.26801300E+6	5.64976743E+2	3.00000000E+0	1.50000000E+1	8.30000000E-13	1.97091000E-8	1.13548000E-6	8.96920073E-5
1.27179600E+6	5.69973100E+2	3.00000000E+0	1.50000000E+1	6.10000000E-13	2.08389000E-8	1.22078000E-6	8.94035684E-5
1.27557800E+6	5.75027760E+2	3.00000000E+0	1.50000000E+1	7.80000000E-13	2.18281000E-8	1.29713000E-6	8.94236463E-5
1.27938600E+6	5.80013575E+2	3.00000000E+0	1.50000000E+1	6.30000000E-13	2.22235000E-8	1.34521000E-6	8.92968582E-5
1.28308100E+6	5.85002944E+2	3.00000000E+0	1.50000000E+1	6.20000000E-13	2.25743000E-8	1.39124000E-6	8.98147332E-5
1.28673900E+6	5.90020654E+2	3.00000000E+0	1.50000000E+1	6.50000000E-13	2.32114000E-8	1.45320000E-6	8.95198959E-5
1.29114400E+6	5.94944535E+2	3.00000000E+0	1.50000000E+1	5.30000000E-13	2.40146000E-8	1.52488000E-6	8.94111233E-5
1.29478900E+6	6.00012415E+2	3.00000000E+0	1.50000000E+1	5.30000000E-13	2.48499000E-8	1.59762000E-6	8.97226262E-5
1.29855000E+6	6.04971879E+2	3.00000000E+0	1.50000000E+1	8.00000000E-13	2.58424000E-8	1.68078000E-6	8.93506216E-5
1.30216300E+6	6.10036961E+2	3.00000000E+0	1.50000000E+1	9.10000000E-13	2.65925000E-8	1.74995000E-6	8.93477338E-5
1.30582000E+6	6.15022310E+2	3.00000000E+0	1.50000000E+1	7.80000000E-13	2.70657000E-8	1.80179000E-6	8.96600413E-5
1.30956200E+6	6.19979941E+2	3.00000000E+0	1.50000000E+1	7.40000000E-13	2.74797000E-8	1.84811000E-6	8.96074909E-5
1.31319600E+6	6.24987556E+2	3.00000000E+0	1.50000000E+1	4.30000000E-13	2.83491000E-8	1.92563000E-6	8.97347140E-5
1.31685300E+6	6.30002993E+2	3.00000000E+0	1.50000000E+1	1.00000000E-12	3.01607000E-8	2.07087000E-6	8.97525268E-5
1.32050600E+6	6.34987667E+2	3.00000000E+0	1.50000000E+1	2.70000000E-13	3.29309000E-8	2.28537000E-6	8.94246506E-5
1.32417900E+6	6.39996081E+2	3.00000000E+0	1.50000000E+1	6.30000000E-13	3.50431000E-8	2.45680000E-6	8.95566332E-5
1.32797800E+6	6.45019154E+2	3.00000000E+0	1.50000000E+1	4.50000000E-13	3.60453000E-8	2.55207000E-6	8.94673633E-5
1.33174000E+6	6.50014353E+2	3.00000000E+0	1.50000000E+1	6.30000000E-13	3.68746000E-8	2.63901000E-6	8.93062966E-5
1.33554300E+6	6.55006632E+2	3.00000000E+0	1.50000000E+1	6.90000000E-13	3.79549000E-8	2.75138000E-6	8.92439591E-5
1.33930900E+6	6.59999490E+2	3.00000000E+0	1.50000000E+1	3.10000000E-13	3.92061000E-8	2.87942000E-6	8.95578968E-5
1.34310400E+6	6.64968154E+2	3.00000000E+0	1.50000000E+1	4.10000000E-13	4.03771000E-8	3.00141000E-6	8.93053340E-5
1.34679600E+6	6.69989704E+2	3.00000000E+0	1.50000000E+1	4.10000000E-13	4.15518000E-8	3.12348000E-6	8.92797547E-5
1.35053400E+6	6.75003799E+2	3.00000000E+0	1.50000000E+1	6.30000000E-13	4.27088000E-8	3.24742000E-6	8.93638419E-5
1.35429700E+6	6.80014647E+2	3.00000000E+0	1.50000000E+1	8.50000000E-13	4.37251000E-8	3.36734000E-6	8.90612917E-5
1.35799000E+6	6.85041853E+2	3.00000000E+0	1.50000000E+1	4.60000000E-13	4.45531000E-8	3.47778000E-6	8.94200968E-5
1.36174100E+6	6.89988016E+2	3.00000000E+0	1.50000000E+1	4.90000000E-13	4.53512000E-8	3.58665000E-6	8.90727269E-5
1.36548700E+6	6.94970500E+2	3.00000000E+0	1.50000000E+1	5.10000000E-13	4.61931000E-8	3.69718000E-6	8.94733297E-5
1.36925400E+6	6.99996783E+2	3.00000000E+0	1.50000000E+1	8.40000000E-13	4.71728000E-8	3.80367000E-6	8.94833582E-5
1.37298100E+6	7.04983172E+2	3.00000000E+0	1.50000000E+1	8.30000000E-13	4.82238000E-8	3.91820000E-6	8.93911170E-5
1.37664000E+6	7.10033688E+2	3.00000000E+0	1.50000000E+1	3.50000000E-13	4.89741000E-8	4.03373000E-6	8.90081750E-5
1.38038100E+6	7.15005514E+2	3.00000000E+0	1.50000000E+1	6.70000000E-13	4.94123000E-8	4.12238000E-6	8.93705624E-5
1.38415100E+6	7.20010858E+2	3.00000000E+0	1.50000000E+1	6.30000000E-13	4.92025000E-8	4.15133000E-6	8.95677971E-5
1.38791200E+6	7.24993615E+2	3.00000000E+0	1.50000000E+1	3.30000000E-13	4.99464000E-8	4.27157000E-6	8.90588270E-5
1.39167800E+6	7.29991763E+2	3.00000000E+0	1.50000000E+1	3.90000000E-13	5.00774000E-8	4.33408000E-6	8.96719294E-5
1.39542600E+6	7.34976352E+2	3.00000000E+0	1.50000000E+1	3.60000000E-13	5.03725000E-8	4.41172000E-6	8.92792838E-5
1.39917500E+6	7.39987682E+2	3.00000000E+0	1.50000000E+1	1.13000000E-12	5.08379000E-8	4.50692000E-6	8.93712120E-5
1.40295400E+6	7.45021433E+2	3.00000000E+0	1.50000000E+1	6.20000000E-13	5.12841000E-8	4.60743000E-6	8.93038856E-5
1.40667000E+6	7.50016360E+2	3.00000000E+0	1.50000000E+1	5.20000000E-13	5.21010000E-8	4.75660000E-6	8.94625890E-5
1.41016400E+6	7.55012885E+2	3.00000000E+0	1.50000000E+1	8.00000000E-13	5.27275000E-8	4.89211000E-6	8.93495994E-5
1.41360200E+6	7.60009202E+2	3.00000000E+0	1.50000000E+1	4.50000000E-13	5.30139000E-8	4.99650000E-6	8.91743766E-5
1.41710400E+6	7.64995772E+2	3.00000000E+0	1.50000000E+1	7.70000000E-13	5.29032000E-8	5.06185000E-6	8.96405685E-5
1.42056100E+6	7.69989848E+2	3.00000000E+0	1.50000000E+1	5.50000000E-13	5.28020000E-8	5.13157000E-6	8.87773083E-5
1.42403000E+6	7.74986991E+2	3.00000000E+0	1.50000000E+1	8.60000000E-13	5.30028000E-8	5.23524000E-6	8.92730819E-5
1.42750700E+6	7.79993371E+2	3.00000000E+0	1.50000000E+1	9.10000000E-13	5.34938000E-8	5.37236000E-6	8.93577563E-5
1.43099400E+6	7.84987992E+2	3.00000000E+0	1.50000000E+1	5.60000000E-13	5.39612000E-8	5.50941000E-6	8.90933262E-5
1.43447200E+6	7.90009049E+2	3.00000000E+0	1.50000000E+1	5.90000000E-13	5.41071000E-8	5.61854000E-6	8.95574200E-5
1.43792200E+6	7.95005422E+2	3.00000000E+0	1.50000000E+1	8.80000000E-13	5.39851000E-8	5.70682000E-6	8.90185015E-5
1.44138500E+6	8.00007768E+2	3.00000000E+0	1.50000000E+1	6.80000000E-13	5.36277000E-8	5.77856000E-6	8.88708429E-5
1.44485900E+6	8.05022195E+2	3.00000000E+0	1.50000000E+1	5.20000000E-13	5.30682000E-8	5.83345000E-6	8.91193049E-5
1.44839000E+6	8.10001761E+2	3.00000000E+0	1.50000000E+1	4.90000000E-13	5.24134000E-8	5.87654000E-6	8.92647760E-5
1.45186800E+6	8.14996848E+2	3.00000000E+0	1.50000000E+1	7.50000000E-13	5.17321000E-8	5.92133000E-6	8.94039618E-5
1.45536500E+6	8.19999064E+2	3.00000000E+0	1.50000000E+1	5.20000000E-13	5.11150000E-8	5.96993000E-6	8.95222443E-5
1.45885100E+6	8.24978282E+2	3.00000000E+0	1.50000000E+1	6.50000000E-13	5.05556000E-8	6.02585000E-6	8.89731960E-5
1.46229800E+6	8.29990098E+2	3.00000000E+0	1.50000000E+1	9.20000000E-13	4.99876000E-8	6.07890000E-6	8.93066304E-5
1.46578100E+6	8.35015435E+2	3.00000000E+0	1.50000000E+1	7.70000000E-13	4.93632000E-8	6.12327000E-6	8.90114414E-5
1.46927400E+6	8.39995335E+2	3.00000000E+0	1.50000000E+1	6.70000000E-13	4.87122000E-8	6.16459000E-6	8.94875484E-5
1.47350300E+6	8.44996805E+2	3.00000000E+0	1.50000000E+1	1.00000000E-12	4.80182000E-8	6.20858000E-6	8.90715169E-5
1.47697700E+6	8.50012250E+2	3.00000000E+0	1.50000000E+1	5.90000000E-13	4.73299000E-8	6.26487000E-6	8.94898819E-5
1.47988600E+6	8.55023608E+2	3.00000000E+0	1.50000000E+1	8.80000000E-13	4.65948000E-8	6.30628000E-6	8.91931730E-5
1.48279000E+6	8.59994248E+2	3.00000000E+0	1.50000000E+1	7.20000000E-13	4.58851000E-8	6.35268000E-6	8.92814832E-5
1.48567800E+6	8.64993714E+2	3.00000000E+0	1.50000000E+1	8.40000000E-13	4.51946000E-8	6.40228000E-6	8.90187340E-5
1.48858800E+6	8.70000966E+2	3.00000000E+0	1.50000000E+1	3.30000000E-13	4.45141000E-8	6.45637000E-6	8.89487492E-5
1.49148500E+6	8.75001883E+2	3.00000000E+0	1.50000000E+1	7.90000000E-13	4.38387000E-8	6.50718000E-6	8.90215920E-5
1.49437800E+6	8.79994808E+2	3.00000000E+0	1.50000000E+1	7.00000000E-13	4.31531000E-8	6.55776000E-6	8.90926736E-5
1.49726700E+6	8.84996610E+2	3.00000000E+0	1.50000000E+1	7.90000000E-13	4.24855000E-8	6.61207000E-6	8.92312782E-5
1.50019500E+6	8.89994153E+2	3.00000000E+0	1.50000000E+1	2.50000000E-13	4.18281000E-8	6.66786000E-6	8.94093709E-5
1.50310300E+6	8.95004808E+2	3.00000000E+0	1.50000000E+1	4.70000000E-13	4.11789000E-8	6.72176000E-6	8.93770533E-5
1.50600900E+6	9.00009203E+2	3.00000000E+0	1.50000000E+1	9.60000000E-13	4.05204000E-8	6.77425000E-6	8.97050219E-5
1.50888100E+6	9.04990309E+2	3.00000000E+0	1.50000000E+1	7.50000000E-13	3.98659000E-8	6.82321000E-6	8.92568963E-5
1.51177000E+6	9.09999315E+2	3.00000000E+0	1.50000000E+1	5.20000000E-13	3.92691000E-8	6.88151000E-6	8.94605803E-5
1.51467400E+6	9.15008294E+2	3.00000000E+0	1.50000000E+1	8.30000000E-13	3.86779000E-8	6.93828000E-6	8.94453215E-5
1.51754700E+6	9.20002760E+2	3.00000000E+0	1.50000000E+1	6.80000000E-13	3.80255000E-8	6.97907000E-6	8.92860281E-5
1.52035000E+6	9.24976238E+2	3.00000000E+0	1.50000000E+1	6.00000000E-13	3.73524000E-8	7.01312000E-6	8.96823394E-5
1.52313700E+6	9.29964700E+2	3.00000000E+0	1.50000000E+1	9.60000000E-13	3.66443000E-8	7.03689000E-6	8.93344688E-5
1.52605800E+6	9.35025459E+2	3.00000000E+0	1.50000000E+1	8.80000000E-13	3.59101000E-8	7.04936000E-6	8.94540476E-5
1.52893800E+6	9.40000494E+2	3.00000000E+0	1.50000000E+1	7.60000000E-13	3.51361000E-8	7.04088000E-6	8.96271663E-5
1.53186600E+6	9.44989316E+2	3.00000000E+0	1.50000000E+1	5.20000000E-13	3.43961000E-8	7.03324000E-6	8.94344734E-5
1.53474100E+6	9.49982335E+2	3.00000000E+0	1.50000000E+1	3.10000000E-13	3.37463000E-8	7.04793000E-6	8.94410031E-5
1.53749900E+6	9.55004872E+2	3.00000000E+0	1.50000000E+1	5.30000000E-13	3.30646000E-8	7.04709000E-6	8.93911587E-5
1.54024000E+6	9.59988324E+2	3.00000000E+0	1.50000000E+1	6.80000000E-13	3.24151000E-8	7.04320000E-6	8.94757050E-5
1.54299400E+6	9.64992517E+2	3.00000000E+0	1.50000000E+1	7.10000000E-13	3.18004000E-8	7.04159000E-6	8.95673590E-5
1.54576800E+6	9.70035375E+2	3.00000000E+0	1.50000000E+1	6.70000000E-13	3.12407000E-8	7.05289000E-6	8.98335087E-5
1.54854200E+6	9.74973810E+2	3.00000000E+0	1.50000000E+1	5.20000000E-13	3.07208000E-8	7.06714000E-6	8.93953996E-5
1.55128500E+6	9.79983195E+2	3.00000000E+0	1.50000000E+1	9.10000000E-13	3.02118000E-8	7.07899000E-6	8.96232295E-5
1.55406400E+6	9.85001721E+2	3.00000000E+0	1.50000000E+1	6.10000000E-13	2.97060000E-8	7.08442000E-6	8.95598280E-5
1.55679800E+6	9.89991570E+2	3.00000000E+0	1.50000000E+1	6.10000000E-13	2.92105000E-8	7.08709000E-6	8.95786333E-5
1.55956300E+6	9.95000477E+2	3.00000000E+0	1.50000000E+1	3.30000000E-13	2.87182000E-8	7.08848000E-6	8.93028455E-5
1.56230500E+6	9.99994129E+2	3.00000000E+0	1.50000000E+1	7.10000000E-13	2.82397000E-8	7.08571000E-6	8.95778077E-5
1.56502600E+6	1.00500327E+3	3.00000000E+0	1.50000000E+1	6.10000000E-13	2.77515000E-8	7.07674000E-6	8.92865168E-5
1.56779000E+6	1.00997579E+3	3.00000000E+0	1.50000000E+1	6.80000000E-13	2.72747000E-8	7.06549000E-6	8.94858229E-5
1.57053800E+6	1.01498947E+3	3.00000000E+0	1.50000000E+1	3.30000000E-13	2.68195000E-8	7.05408000E-6	8.95867574E-5
1.57328000E+6	1.02001934E+3	3.00000000E+0	1.50000000E+1	2.20000000E-13	2.63841000E-8	7.04330000E-6	8.92448561E-5
1.57603200E+6	1.02498985E+3	3.00000000E+0	1.50000000E+1	8.20000000E-13	2.59633000E-8	7.03071000E-6	8.96001327E-5
1.57882000E+6	1.02999932E+3	3.00000000E+0	1.50000000E+1	1.07000000E-12	2.55258000E-8	7.00831000E-6	8.92756121E-5
1.58157500E+6	1.03501650E+3	3.00000000E+0	1.50000000E+1	5.90000000E-13	2.50647000E-8	6.97292000E-6	8.93980282E-5
1.58432100E+6	1.03998710E+3	3.00000000E+0	1.50000000E+1	3.80000000E-13	2.46062000E-8	6.93087000E-6	8.92500745E-5
1.58707100E+6	1.04497977E+3	3.00000000E+0	1.50000000E+1	7.50000000E-13	2.41436000E-8	6.88290000E-6	8.93393563E-5
1.58982200E+6	1.05000178E+3	3.00000000E+0	1.50000000E+1	4.30000000E-13	2.36866000E-8	6.83125000E-6	8.98356992E-5
1.59287800E+6	1.05501768E+3	3.00000000E+0	1.50000000E+1	7.60000000E-13	2.33813000E-8	6.82111000E-6	8.94478279E-5
1.59604600E+6	1.05995214E+3	3.00000000E+0	1.50000000E+1	7.10000000E-13	2.30579000E-8	6.80224000E-6	8.93872219E-5
1.59924600E+6	1.06502000E+3	3.00000000E+0	1.50000000E+1	8.40000000E-13	2.27059000E-8	6.77221000E-6	8.94647109E-5
1.60241500E+6	1.06999494E+3	3.00000000E+0	1.50000000E+1	9.30000000E-13	2.23237000E-8	6.72967000E-6	8.96346467E-5
1.60545000E+6	1.07504189E+3	3.00000000E+0	1.50000000E+1	8.10000000E-13	2.19222000E-8	6.67631000E-6	8.95568329E-5
1.60862300E+6	1.07996624E+3	3.00000000E+0	1.50000000E+1	6.80000000E-13	2.14833000E-8	6.60757000E-6	8.92329620E-5
1.61170600E+6	1.08502399E+3	3.00000000E+0	1.50000000E+1	6.70000000E-13	2.10639000E-8	6.54091000E-6	8.94599187E-5
1.61487600E+6	1.08997787E+3	3.00000000E+0	1.50000000E+1	5.50000000E-13	2.06818000E-8	6.48334000E-6	8.94530850E-5
1.61890200E+6	1.09500572E+3	3.00000000E+0	1.50000000E+1	6.50000000E-13	2.03086000E-8	6.42410000E-6	8.89516370E-5
1.62198300E+6	1.10000992E+3	3.00000000E+0	1.50000000E+1	5.90000000E-13	1.99273000E-8	6.35831000E-6	8.96048623E-5
1.62516500E+6	1.10498776E+3	3.00000000E+0	1.50000000E+1	4.60000000E-13	1.95668000E-8	6.29262000E-6	8.94182014E-5
1.62831500E+6	1.11001611E+3	3.00000000E+0	1.50000000E+1	6.40000000E-13	1.91973000E-8	6.21995000E-6	8.95136731E-5
1.63150600E+6	1.11496474E+3	3.00000000E+0	1.50000000E+1	5.90000000E-13	1.88271000E-8	6.14307000E-6	8.94338923E-5
1.63468000E+6	1.12002567E+3	3.00000000E+0	1.50000000E+1	8.60000000E-13	1.84594000E-8	6.06313000E-6	8.94516157E-5
1.63777800E+6	1.12498824E+3	3.00000000E+0	1.50000000E+1	7.40000000E-13	1.80968000E-8	5.98090000E-6	8.94926625E-5
1.64099400E+6	1.12999079E+3	3.00000000E+0	1.50000000E+1	5.90000000E-13	1.77373000E-8	5.89523000E-6	8.97620010E-5
1.64417900E+6	1.13500184E+3	3.00000000E+0	1.50000000E+1	4.00000000E-13	1.73699000E-8	5.80333000E-6	8.95395326E-5
1.64724800E+6	1.13998557E+3	3.00000000E+0	1.50000000E+1	7.50000000E-13	1.69957000E-8	5.70498000E-6	8.94393402E-5
1.65041000E+6	1.14501216E+3	3.00000000E+0	1.50000000E+1	4.70000000E-13	1.66091000E-8	5.59866000E-6	8.93353271E-5
1.65362300E+6	1.14997241E+3	3.00000000E+0	1.50000000E+1	6.30000000E-13	1.62038000E-8	5.48224000E-6	8.88860659E-5
1.65681900E+6	1.15501064E+3	3.00000000E+0	1.50000000E+1	1.03000000E-12	1.57616000E-8	5.34897000E-6	8.93090653E-5
1.65997300E+6	1.16000295E+3	3.00000000E+0	1.50000000E+1	8.70000000E-13	1.51961000E-8	5.17116000E-6	8.92261552E-5
1.66305900E+6	1.16499101E+3	3.00000000E+0	1.50000000E+1	5.80000000E-13	1.44148000E-8	4.91676000E-6	8.95531016E-5
1.66627000E+6	1.17000185E+3	3.00000000E+0	1.50000000E+1	5.60000000E-13	1.36188000E-8	4.65233000E-6	8.93931346E-5
1.66946700E+6	1.17501795E+3	3.00000000E+0	1.50000000E+1	5.00000000E-13	1.28146000E-8	4.38145000E-6	8.95315575E-5
1.67254600E+6	1.17999219E+3	3.00000000E+0	1.50000000E+1	5.60000000E-13	1.20130000E-8	4.10843000E-6	8.95299988E-5
1.67571300E+6	1.18500603E+3	3.00000000E+0	1.50000000E+1	1.04000000E-12	1.12225000E-8	3.83693000E-6	8.93580186E-5
1.67879000E+6	1.19001969E+3	3.00000000E+0	1.50000000E+1	5.70000000E-13	1.04350000E-8	3.56436000E-6	8.94177275E-5
1.68197800E+6	1.19497279E+3	3.00000000E+0	1.50000000E+1	8.70000000E-13	9.66310000E-9	3.29583000E-6	8.89892178E-5
1.68506200E+6	1.20002564E+3	3.00000000E+0	1.50000000E+1	7.50000000E-13	8.90880000E-9	3.03295000E-6	8.91227709E-5
