G:\BEAR_storage\User_Experiments\20220108_arneodo\file(1)_Region 4__0017.txt
Ring Energy (GeV): 2
Lifetime (hours): 16.9675
Scan beginning: 8/1/2022	5:47:09 PM
Ring current (mA): 308.93
Source position: x (mm): -0.005 x' (mrad): 0.005 y (mm): -0.004 y' (mrad): 0
Scan end: 8/1/2022	6:07:44 PM
Ring current (mA): 308.55
Source position: x (mm): -0.005 x' (mrad): 0.005 y (mm): -0.003 y' (mrad): 0

SCAN TYPE: PHOTON ENERGY VS VAR_1 VS VAR_2

FILE INFO: FILE INFO:

SCAN PARAMETERS
waiting time (ms): 0
Number of scans: 1
Current scan number: 1
DARK OFF 
PREDARK OFF 

SCAN PARAMETERS
Regions configuration: 
number of regions: 7
Mirror grating scan: on
Timed acquisition: off
Region 1:
Initial energy (eV): 3.000000
Final energy (eV): 4.500000
Delta energy (eV): 0.100000
Deviation angle choice: Degrees: 
Deviation angle (°): NaN
B270 window
GNIM channel
range keithley B 200 pA
range keithley C 2 uA
range keithley A 200 pA
Var_1: XM3.000000
Var_2: YM15.000000
Bias CEM (V): 0.000000
Bias Keithley B (V): -30.000000
Name region: 
Region 2:
Initial energy (eV): 4.000000
Final energy (eV): 8.000000
Delta energy (eV): 0.100000
Deviation angle choice: Degrees: 
Deviation angle (°): NaN
SiO2 window
GNIM channel
range keithley B 200 pA
range keithley C 2 uA
range keithley A 200 pA
Var_1: XM3.000000
Var_2: YM15.000000
Bias CEM (V): 0.000000
Bias Keithley B (V): -30.000000
Name region: 
Region 3:
Initial energy (eV): 7.000000
Final energy (eV): 12.000000
Delta energy (eV): 0.100000
Deviation angle choice: Degrees: 
Deviation angle (°): NaN
filter LiF window
GNIM channel
range keithley B 200 pA
range keithley C 2 uA
range keithley A 200 pA
Var_1: XM3.000000
Var_2: YM15.000000
Bias CEM (V): 0.000000
Bias Keithley B (V): -30.000000
Name region: 
Region 4:
Initial energy (eV): 11.000000
Final energy (eV): 18.000000
Delta energy (eV): 0.100000
Deviation angle choice: Degrees: 
Deviation angle (°): NaN
In filter
GNIM channel
range keithley B 200 pA
range keithley C 2 uA
range keithley A 200 pA
Var_1: XM3.000000
Var_2: YM15.000000
Bias CEM (V): 0.000000
Bias Keithley B (V): -30.000000
Name region: 
Region 5:
Initial energy (eV): 15.000000
Final energy (eV): 25.000000
Delta energy (eV): 0.100000
Deviation angle choice: Degrees: 
Deviation angle (°): NaN
Sn filter
GNIM channel
range keithley B 20 nA
range keithley C 2 uA
range keithley A 20 nA
Var_1: XM3.000000
Var_2: YM15.000000
Bias CEM (V): 0.000000
Bias Keithley B (V): -30.000000
Name region: 
Region 6:
Initial energy (eV): 23.000000
Final energy (eV): 45.000000
Delta energy (eV): 0.100000
Deviation angle choice: Degrees: 
Deviation angle (°): NaN
Full Beam
GNIM channel
range keithley B 20 nA
range keithley C 2 uA
range keithley A 20 nA
Var_1: XM3.000000
Var_2: YM15.000000
Bias CEM (V): 0.000000
Bias Keithley B (V): -30.000000
Name region: 
Region 7:
Initial energy (eV): 23.000000
Final energy (eV): 45.000000
Delta energy (eV): 0.100000
Deviation angle choice: Degrees: 
Deviation angle (°): NaN
Al filter
GNIM channel
range keithley B 20 nA
range keithley C 2 uA
range keithley A 20 nA
Var_1: XM3.000000
Var_2: YM15.000000
Bias CEM (V): 0.000000
Bias Keithley B (V): -30.000000
Name region: 

BEAR MONOCHROMATOR CONFIGURATION: 
Current Grating Position:     185052.20
Current Mirror Position: 9999.8
Current Grating: GNIM
P2 phiz position:  -0.0133
Mono axis position: 73.5000
Current Photon Energy (eV): 29.000
Current Deviation Angle: 29.905
Vertical Exit Slits (um): 450.000
Exit slit y axis position: 2.2375
Horizontal Exit Slits (um):  890.000
Exit slit z axis position: 1.9250
Mitutoyo position (mm): 

Dose on sample (mJ/cm^2): NaN

ENERGY CALIBRATION:
offset grating G1200: yes
Delta 0 order G1200:  -500.0
offset grating G1800: not
Delta 0 order G1800:  0.0
offset grating GNIM: not
Delta 0 order GNIM:  0.0
ZERO ORDER POSITIONS:
Grating G1200: Mirror position:  4938.0
Grating position: -105355.0
Grating G1800: 
Mirror position:  4938.0
Grating position: -106345.0
Grating GNIM: 
Mirror position:  10000.0
Grating position: 227300.0

Initial filter: Al filter

EXPERIMENTAL CHAMBER CONFIGURATION: 
PsiC (deg):   0.036413
Phi Analyzer (degrees): -0.009471
Theta Manipulator (degrees): -45.000040
Theta Analyzer (degrees): -0.000455
PhiM (degrees): -0.006155
XM (mm): 2.999938
YM (mm): 14.999863
ZM (mm): (Warning: for kinetic energy scans, 
this parameter is given in the scan settings) 
-8.300075
TiltM (°): -0.000275

COIL VALUES
Ix (amps):2.950
Iy (amps): 6.790
Iz (amps): 14.440

POLARIZATION SELECTOR CONFIGURATION:
Psi1 (rad): -0.001665535
Psi2 (rad): 0.001417093
Z min position (mm): 46.599650
DZ position (mm): 18.599100
Zmin 0 (mm): 66.500000
DZ0 (mm): 53.000000

BEAM SELECTOR CONFIGURATION:
Zmin position (mm): 158.000000
DZ position (mm): 264.000000
Y+ position (mm): 291.700000
Y- position (mm): NaN

CHANNEL ELECTRON MULTIPLIER CONFIGURATION:
CEM configured: OFF
Bias CEM: 0.000000

FLUORESCENCE DETECTOR CONFIGURATION:
Not configured

LUMINESCENCE MONOCHROMATOR CONFIGURATION:
Optical fiber position (mm): 0.000000
Optical fiber Switch inside: OFF
Optical fiber Switch outside: ON
Monochromator wavelength (A): 229000.000000
Limit Switches: OFF

I0 MONITOR PARAMETERS:
I0 detector position(mm): 1.924999E+2
Lower switch: OFF
Upper switch: OFF
Valve status:open

PRESSURE PARAMETERS:
Monitor chamber pressure (mbar): 1.239e-09
Experimental chamber pressure -ION GAUGE-(mbar): 0.000000E+0

XMCD PARAMETERS:
Xmcd OFF
Xmcd Direction -
Xmcd current (A): 0.000000

Gated scan on
Shutter open time (ms): 633604407
Shutter aperture time (ms): -214622

Instrument 1: AMMETER KEITHLEY 6517A B
Measure type: Current
range type: set range value
range value (ampere):  200 pA
Integration time:  set NPLC value
NPLC value: 10.000
Digital filter count: 2
SAMPLE BIAS (V): -30.000
Vsource: ON
Output Voltage value: 30.000
Vsource range: 1000 V

Range Keithley B changed to 20 nA

Range Keithley B changed to 200 pA

Range Keithley B changed to 20 nA

Range Keithley B changed to 200 pA

Range Keithley B changed to 20 nA

Range Keithley B changed to 200 pA

Range Keithley B changed to 20 nA

Range Keithley B changed to 200 pA

Range Keithley B changed to 20 nA

Range Keithley B changed to 200 nA

Range Keithley B changed to 20 nA

Range Keithley B changed to 200 nA

Range Keithley B changed to 200 pA

Range Keithley B changed to 20 nA

Range Keithley B changed to 200 pA

Range Keithley B changed to 20 nA

Range Keithley B changed to 200 pA

Range Keithley B changed to 20 nA

Range Keithley B changed to 200 pA

Range Keithley B changed to 20 nA

Range Keithley B changed to 200 pA

Range Keithley B changed to 20 nA

Range Keithley B changed to 200 pA

Range Keithley B changed to 20 nA

Instrument 2: AMMETER KEITHLEY 6517A A
Measure type: Current
range type: set range value
range value (ampere):  20 nA
Integration time:  set NPLC value
NPLC value: 10.000
Digital filter count: 2
Vsource: OFF
Output Voltage value: -0.000
Vsource range: 100 V
Trigger source: bus

Range Keithley A changed to 200 nA

Range Keithley A changed to 200 pA

Range Keithley A changed to 20 nA

Range Keithley A changed to 200 nA

Range Keithley A changed to 20 nA

Range Keithley A changed to 200 nA

Range Keithley A changed to 20 nA

Range Keithley A changed to 200 nA

Range Keithley A changed to 200 pA

Range Keithley A changed to 20 nA

Range Keithley A changed to 200 pA

Range Keithley A changed to 20 nA

Range Keithley A changed to 200 pA

Range Keithley A changed to 20 nA

Range Keithley A changed to 200 pA

Range Keithley A changed to 20 nA

Range Keithley A changed to 200 pA

Range Keithley A changed to 20 nA

Range Keithley A changed to 200 pA

Range Keithley A changed to 20 nA

Instrument 3: AMMETER KEITHLEY 6517A C 
Measure type: Current
range type: set range value
range value (ampere):  2 uA
Integration time:  set NPLC value
NPLC value: 10.000
Digital filter count: 2
Vsource: OFF
Output Voltage value: -0.000
Vsource range: 100 V
Trigger source: bus


________________________________________________________________________________

RelativeTime (msec)	Photon Energy	Var_1	Var_2	INSTR_1_Sample with Bias _(ampere ) 	INSTR_2_Monitor IM_(ampere)  	INSTR_3_Diode A3_(ampere)	I_BPM_sum (Amps)	
________________________________________________________________________________

8.45917000E+5	1.10000732E+1	3.00000000E+0	1.50000000E+1	4.38800000E-13	3.69700000E-13	-3.19000000E-10	8.93822538E-5
8.53058000E+5	1.11000240E+1	3.00000000E+0	1.50000000E+1	3.81300000E-13	3.64900000E-13	-3.07000000E-10	8.95915317E-5
8.58782000E+5	1.12000343E+1	3.00000000E+0	1.50000000E+1	4.22500000E-13	3.90700000E-13	-2.90000000E-10	8.95961302E-5
8.64532000E+5	1.12999640E+1	3.00000000E+0	1.50000000E+1	4.02500000E-13	4.54100000E-13	-3.21000000E-10	8.92515766E-5
8.70188000E+5	1.13999510E+1	3.00000000E+0	1.50000000E+1	4.08500000E-13	5.92900000E-13	-2.96000000E-10	8.90373932E-5
8.75928000E+5	1.15000697E+1	3.00000000E+0	1.50000000E+1	4.05100000E-13	8.62200000E-13	-2.55000000E-10	8.93728989E-5
8.81649000E+5	1.16000161E+1	3.00000000E+0	1.50000000E+1	4.03200000E-13	1.23170000E-12	-2.56000000E-10	8.93707650E-5
8.87230000E+5	1.16999809E+1	3.00000000E+0	1.50000000E+1	3.97100000E-13	1.46460000E-12	-2.63000000E-10	8.95982372E-5
8.92847000E+5	1.18000109E+1	3.00000000E+0	1.50000000E+1	3.79100000E-13	1.63680000E-12	-2.22000000E-10	8.91360359E-5
8.98466000E+5	1.18999838E+1	3.00000000E+0	1.50000000E+1	4.15600000E-13	1.85470000E-12	-2.28000000E-10	8.94694048E-5
9.04069000E+5	1.20000177E+1	3.00000000E+0	1.50000000E+1	4.12600000E-13	2.23340000E-12	-1.91000000E-10	8.94551861E-5
9.09640000E+5	1.20999648E+1	3.00000000E+0	1.50000000E+1	4.70100000E-13	2.82800000E-12	-1.61000000E-10	8.93975245E-5
9.15088000E+5	1.22000338E+1	3.00000000E+0	1.50000000E+1	3.76300000E-13	3.67630000E-12	-1.06000000E-10	8.92197477E-5
9.20512000E+5	1.23000038E+1	3.00000000E+0	1.50000000E+1	5.02600000E-13	4.58290000E-12	-5.20000000E-11	8.90192704E-5
9.25855000E+5	1.23999670E+1	3.00000000E+0	1.50000000E+1	3.94900000E-13	5.21050000E-12	-2.50000000E-11	8.92708944E-5
9.31299000E+5	1.25000361E+1	3.00000000E+0	1.50000000E+1	4.33300000E-13	5.38080000E-12	-2.30000000E-11	8.90965866E-5
9.36632000E+5	1.25999429E+1	3.00000000E+0	1.50000000E+1	4.14900000E-13	5.23180000E-12	-4.00000000E-11	8.92530399E-5
9.42164000E+5	1.27000757E+1	3.00000000E+0	1.50000000E+1	4.10900000E-13	5.03090000E-12	-5.50000000E-11	8.89235364E-5
9.47542000E+5	1.27999516E+1	3.00000000E+0	1.50000000E+1	4.26100000E-13	4.95370000E-12	-6.50000000E-11	8.91154306E-5
9.52849000E+5	1.29000101E+1	3.00000000E+0	1.50000000E+1	3.71400000E-13	5.08890000E-12	-6.30000000E-11	8.91606556E-5
9.58183000E+5	1.29999879E+1	3.00000000E+0	1.50000000E+1	4.29000000E-13	5.48460000E-12	-3.80000000E-11	8.94194620E-5
9.63488000E+5	1.30999989E+1	3.00000000E+0	1.50000000E+1	3.87700000E-13	6.17170000E-12	2.50000000E-11	8.92286735E-5
9.68814000E+5	1.32000513E+1	3.00000000E+0	1.50000000E+1	3.59600000E-13	7.14770000E-12	3.30000000E-11	8.95173388E-5
9.74093000E+5	1.33000247E+1	3.00000000E+0	1.50000000E+1	4.26700000E-13	8.31330000E-12	1.20000000E-10	8.96588611E-5
9.79429000E+5	1.33999979E+1	3.00000000E+0	1.50000000E+1	4.17100000E-13	9.44060000E-12	1.72000000E-10	8.94898402E-5
9.84732000E+5	1.34999663E+1	3.00000000E+0	1.50000000E+1	4.82600000E-13	1.03468000E-11	2.19000000E-10	8.93221783E-5
9.90092000E+5	1.36000166E+1	3.00000000E+0	1.50000000E+1	3.87600000E-13	1.08331000E-11	2.38000000E-10	8.91852455E-5
9.95420000E+5	1.36999966E+1	3.00000000E+0	1.50000000E+1	4.69400000E-13	1.09592000E-11	2.54000000E-10	8.90845494E-5
1.00073900E+6	1.38000100E+1	3.00000000E+0	1.50000000E+1	4.39300000E-13	1.08929000E-11	2.69000000E-10	8.93105852E-5
1.00601800E+6	1.38999787E+1	3.00000000E+0	1.50000000E+1	3.94200000E-13	1.07685000E-11	2.29000000E-10	8.89893668E-5
1.01134500E+6	1.39999968E+1	3.00000000E+0	1.50000000E+1	3.84900000E-13	1.07528000E-11	2.35000000E-10	8.92515974E-5
1.01665900E+6	1.41000512E+1	3.00000000E+0	1.50000000E+1	3.95600000E-13	1.09387000E-11	2.46000000E-10	8.89435338E-5
1.02187500E+6	1.41999312E+1	3.00000000E+0	1.50000000E+1	3.97900000E-13	1.13843000E-11	2.77000000E-10	8.92793404E-5
1.02716300E+6	1.43000666E+1	3.00000000E+0	1.50000000E+1	4.02400000E-13	1.21115000E-11	3.12000000E-10	8.93558400E-5
1.03243500E+6	1.44000314E+1	3.00000000E+0	1.50000000E+1	4.48600000E-13	1.30900000E-11	3.89000000E-10	8.90048193E-5
1.03772300E+6	1.44999775E+1	3.00000000E+0	1.50000000E+1	3.79500000E-13	1.42432000E-11	4.52000000E-10	8.93365072E-5
1.04293500E+6	1.45999272E+1	3.00000000E+0	1.50000000E+1	4.11600000E-13	1.54185000E-11	5.09000000E-10	8.88491409E-5
1.04825100E+6	1.47000636E+1	3.00000000E+0	1.50000000E+1	4.06500000E-13	1.64518000E-11	5.81000000E-10	8.89206843E-5
1.05346400E+6	1.47999900E+1	3.00000000E+0	1.50000000E+1	4.29000000E-13	1.71719000E-11	6.45000000E-10	8.93108147E-5
1.05875800E+6	1.49000323E+1	3.00000000E+0	1.50000000E+1	3.86900000E-13	1.75292000E-11	6.53000000E-10	8.90127676E-5
1.06394400E+6	1.49999287E+1	3.00000000E+0	1.50000000E+1	3.99800000E-13	1.75854000E-11	6.60000000E-10	8.89840471E-5
1.06912500E+6	1.50999811E+1	3.00000000E+0	1.50000000E+1	4.13200000E-13	1.74626000E-11	7.02000000E-10	8.89995234E-5
1.07410300E+6	1.52000556E+1	3.00000000E+0	1.50000000E+1	4.30300000E-13	1.73237000E-11	6.91000000E-10	8.88786720E-5
1.08001200E+6	1.52999733E+1	3.00000000E+0	1.50000000E+1	4.13600000E-13	1.72916000E-11	6.75000000E-10	8.91175764E-5
1.08501200E+6	1.54000117E+1	3.00000000E+0	1.50000000E+1	4.24000000E-13	1.74575000E-11	7.23000000E-10	8.89894174E-5
1.09016600E+6	1.54999729E+1	3.00000000E+0	1.50000000E+1	3.66700000E-13	1.78505000E-11	7.56000000E-10	8.89303254E-5
1.09533700E+6	1.56000273E+1	3.00000000E+0	1.50000000E+1	3.92900000E-13	1.84364000E-11	7.91000000E-10	8.92862516E-5
1.10026100E+6	1.56999717E+1	3.00000000E+0	1.50000000E+1	4.32000000E-13	1.91044000E-11	8.87000000E-10	8.90946435E-5
1.10542600E+6	1.58000422E+1	3.00000000E+0	1.50000000E+1	4.02500000E-13	1.96597000E-11	9.19000000E-10	8.90709238E-5
1.11059100E+6	1.59000124E+1	3.00000000E+0	1.50000000E+1	4.15400000E-13	1.98844000E-11	9.45000000E-10	8.89076458E-5
1.11559100E+6	1.60000424E+1	3.00000000E+0	1.50000000E+1	4.23500000E-13	1.96640000E-11	9.65000000E-10	8.94080477E-5
1.12078500E+6	1.61000256E+1	3.00000000E+0	1.50000000E+1	4.27900000E-13	1.87779000E-11	9.01000000E-10	8.94282775E-5
1.12577800E+6	1.61999581E+1	3.00000000E+0	1.50000000E+1	4.14500000E-13	1.73134000E-11	8.43000000E-10	8.96496909E-5
1.13096200E+6	1.63000533E+1	3.00000000E+0	1.50000000E+1	3.76500000E-13	1.51663000E-11	6.93000000E-10	8.96820175E-5
1.13612700E+6	1.64000524E+1	3.00000000E+0	1.50000000E+1	3.91000000E-13	1.16396000E-11	4.73000000E-10	8.94910949E-5
1.14109200E+6	1.64999956E+1	3.00000000E+0	1.50000000E+1	4.04200000E-13	5.97220000E-12	6.40000000E-11	8.91458737E-5
1.14628900E+6	1.65999710E+1	3.00000000E+0	1.50000000E+1	3.73100000E-13	2.13770000E-12	-2.14000000E-10	8.98236263E-5
1.15150300E+6	1.67000029E+1	3.00000000E+0	1.50000000E+1	4.48000000E-13	1.06840000E-12	-2.76000000E-10	8.97840726E-5
1.15634400E+6	1.67999562E+1	3.00000000E+0	1.50000000E+1	4.08900000E-13	8.20900000E-13	-2.94000000E-10	8.93375116E-5
1.16139100E+6	1.69000396E+1	3.00000000E+0	1.50000000E+1	4.24000000E-13	7.59500000E-13	-2.80000000E-10	8.95405310E-5
1.16623100E+6	1.69999056E+1	3.00000000E+0	1.50000000E+1	4.22300000E-13	7.42200000E-13	-2.90000000E-10	8.99881738E-5
1.17137300E+6	1.71001225E+1	3.00000000E+0	1.50000000E+1	4.66000000E-13	7.33800000E-13	-2.99000000E-10	8.90519099E-5
1.17643000E+6	1.71999567E+1	3.00000000E+0	1.50000000E+1	3.82500000E-13	7.30300000E-13	-3.03000000E-10	8.96330940E-5
1.18126800E+6	1.73000340E+1	3.00000000E+0	1.50000000E+1	4.28600000E-13	7.15200000E-13	-3.07000000E-10	8.94474792E-5
1.18630900E+6	1.73999714E+1	3.00000000E+0	1.50000000E+1	3.49800000E-13	6.50600000E-13	-3.07000000E-10	8.93453675E-5
1.19112800E+6	1.74999440E+1	3.00000000E+0	1.50000000E+1	4.46300000E-13	5.67300000E-13	-3.10000000E-10	8.92329829E-5
1.19624600E+6	1.76001355E+1	3.00000000E+0	1.50000000E+1	4.23300000E-13	5.20300000E-13	-3.01000000E-10	8.91069369E-5
1.20128400E+6	1.76998935E+1	3.00000000E+0	1.50000000E+1	4.13900000E-13	5.23500000E-13	-3.02000000E-10	8.92993735E-5
1.20614100E+6	1.78000639E+1	3.00000000E+0	1.50000000E+1	3.85100000E-13	5.37100000E-13	-3.12000000E-10	8.94883412E-5
1.21118200E+6	1.79000130E+1	3.00000000E+0	1.50000000E+1	4.22500000E-13	5.47000000E-13	-3.06000000E-10	8.91789066E-5
1.21621700E+6	1.80000583E+1	3.00000000E+0	1.50000000E+1	4.08800000E-13	5.59300000E-13	-3.04000000E-10	8.90622245E-5
