G:\BEAR_storage\User_Experiments\20220108_arneodo\file(1)_Region 2__0017.txt
Ring Energy (GeV): 2
Lifetime (hours): 16.9675
Scan beginning: 8/1/2022	5:47:09 PM
Ring current (mA): 308.93
Source position: x (mm): -0.005 x' (mrad): 0.005 y (mm): -0.004 y' (mrad): 0
Scan end: 8/1/2022	5:55:52 PM
Ring current (mA): 307.88
Source position: x (mm): -0.004 x' (mrad): 0.003 y (mm): -0.003 y' (mrad): 0

SCAN TYPE: PHOTON ENERGY VS VAR_1 VS VAR_2

FILE INFO: FILE INFO:

SCAN PARAMETERS
waiting time (ms): 0
Number of scans: 1
Current scan number: 1
DARK OFF 
PREDARK OFF 

SCAN PARAMETERS
Regions configuration: 
number of regions: 7
Mirror grating scan: on
Timed acquisition: off
Region 1:
Initial energy (eV): 3.000000
Final energy (eV): 4.500000
Delta energy (eV): 0.100000
Deviation angle choice: Degrees: 
Deviation angle (°): NaN
B270 window
GNIM channel
range keithley B 200 pA
range keithley C 2 uA
range keithley A 200 pA
Var_1: XM3.000000
Var_2: YM15.000000
Bias CEM (V): 0.000000
Bias Keithley B (V): -30.000000
Name region: 
Region 2:
Initial energy (eV): 4.000000
Final energy (eV): 8.000000
Delta energy (eV): 0.100000
Deviation angle choice: Degrees: 
Deviation angle (°): NaN
SiO2 window
GNIM channel
range keithley B 200 pA
range keithley C 2 uA
range keithley A 200 pA
Var_1: XM3.000000
Var_2: YM15.000000
Bias CEM (V): 0.000000
Bias Keithley B (V): -30.000000
Name region: 
Region 3:
Initial energy (eV): 7.000000
Final energy (eV): 12.000000
Delta energy (eV): 0.100000
Deviation angle choice: Degrees: 
Deviation angle (°): NaN
filter LiF window
GNIM channel
range keithley B 200 pA
range keithley C 2 uA
range keithley A 200 pA
Var_1: XM3.000000
Var_2: YM15.000000
Bias CEM (V): 0.000000
Bias Keithley B (V): -30.000000
Name region: 
Region 4:
Initial energy (eV): 11.000000
Final energy (eV): 18.000000
Delta energy (eV): 0.100000
Deviation angle choice: Degrees: 
Deviation angle (°): NaN
In filter
GNIM channel
range keithley B 200 pA
range keithley C 2 uA
range keithley A 200 pA
Var_1: XM3.000000
Var_2: YM15.000000
Bias CEM (V): 0.000000
Bias Keithley B (V): -30.000000
Name region: 
Region 5:
Initial energy (eV): 15.000000
Final energy (eV): 25.000000
Delta energy (eV): 0.100000
Deviation angle choice: Degrees: 
Deviation angle (°): NaN
Sn filter
GNIM channel
range keithley B 20 nA
range keithley C 2 uA
range keithley A 20 nA
Var_1: XM3.000000
Var_2: YM15.000000
Bias CEM (V): 0.000000
Bias Keithley B (V): -30.000000
Name region: 
Region 6:
Initial energy (eV): 23.000000
Final energy (eV): 45.000000
Delta energy (eV): 0.100000
Deviation angle choice: Degrees: 
Deviation angle (°): NaN
Full Beam
GNIM channel
range keithley B 20 nA
range keithley C 2 uA
range keithley A 20 nA
Var_1: XM3.000000
Var_2: YM15.000000
Bias CEM (V): 0.000000
Bias Keithley B (V): -30.000000
Name region: 
Region 7:
Initial energy (eV): 23.000000
Final energy (eV): 45.000000
Delta energy (eV): 0.100000
Deviation angle choice: Degrees: 
Deviation angle (°): NaN
Al filter
GNIM channel
range keithley B 20 nA
range keithley C 2 uA
range keithley A 20 nA
Var_1: XM3.000000
Var_2: YM15.000000
Bias CEM (V): 0.000000
Bias Keithley B (V): -30.000000
Name region: 

BEAR MONOCHROMATOR CONFIGURATION: 
Current Grating Position:     185052.20
Current Mirror Position: 9999.8
Current Grating: GNIM
P2 phiz position:  -0.0133
Mono axis position: 73.5000
Current Photon Energy (eV): 29.000
Current Deviation Angle: 29.905
Vertical Exit Slits (um): 450.000
Exit slit y axis position: 2.2375
Horizontal Exit Slits (um):  890.000
Exit slit z axis position: 1.9250
Mitutoyo position (mm): 

Dose on sample (mJ/cm^2): NaN

ENERGY CALIBRATION:
offset grating G1200: yes
Delta 0 order G1200:  -500.0
offset grating G1800: not
Delta 0 order G1800:  0.0
offset grating GNIM: not
Delta 0 order GNIM:  0.0
ZERO ORDER POSITIONS:
Grating G1200: Mirror position:  4938.0
Grating position: -105355.0
Grating G1800: 
Mirror position:  4938.0
Grating position: -106345.0
Grating GNIM: 
Mirror position:  10000.0
Grating position: 227300.0

Initial filter: Al filter

EXPERIMENTAL CHAMBER CONFIGURATION: 
PsiC (deg):   0.036413
Phi Analyzer (degrees): -0.009471
Theta Manipulator (degrees): -45.000040
Theta Analyzer (degrees): -0.000455
PhiM (degrees): -0.006155
XM (mm): 2.999938
YM (mm): 14.999863
ZM (mm): (Warning: for kinetic energy scans, 
this parameter is given in the scan settings) 
-8.300075
TiltM (°): -0.000275

COIL VALUES
Ix (amps):2.950
Iy (amps): 6.790
Iz (amps): 14.440

POLARIZATION SELECTOR CONFIGURATION:
Psi1 (rad): -0.001665535
Psi2 (rad): 0.001417093
Z min position (mm): 46.599650
DZ position (mm): 18.599100
Zmin 0 (mm): 66.500000
DZ0 (mm): 53.000000

BEAM SELECTOR CONFIGURATION:
Zmin position (mm): 158.000000
DZ position (mm): 264.000000
Y+ position (mm): 291.700000
Y- position (mm): NaN

CHANNEL ELECTRON MULTIPLIER CONFIGURATION:
CEM configured: OFF
Bias CEM: 0.000000

FLUORESCENCE DETECTOR CONFIGURATION:
Not configured

LUMINESCENCE MONOCHROMATOR CONFIGURATION:
Optical fiber position (mm): 0.000000
Optical fiber Switch inside: OFF
Optical fiber Switch outside: ON
Monochromator wavelength (A): 229000.000000
Limit Switches: OFF

I0 MONITOR PARAMETERS:
I0 detector position(mm): 1.924999E+2
Lower switch: OFF
Upper switch: OFF
Valve status:open

PRESSURE PARAMETERS:
Monitor chamber pressure (mbar): 1.239e-09
Experimental chamber pressure -ION GAUGE-(mbar): 0.000000E+0

XMCD PARAMETERS:
Xmcd OFF
Xmcd Direction -
Xmcd current (A): 0.000000

Gated scan on
Shutter open time (ms): 633604407
Shutter aperture time (ms): -214622

Instrument 1: AMMETER KEITHLEY 6517A B
Measure type: Current
range type: set range value
range value (ampere):  200 pA
Integration time:  set NPLC value
NPLC value: 10.000
Digital filter count: 2
SAMPLE BIAS (V): -30.000
Vsource: ON
Output Voltage value: 30.000
Vsource range: 1000 V

Range Keithley B changed to 20 nA

Range Keithley B changed to 200 pA

Range Keithley B changed to 20 nA

Range Keithley B changed to 200 pA

Range Keithley B changed to 20 nA

Range Keithley B changed to 200 pA

Range Keithley B changed to 20 nA

Range Keithley B changed to 200 pA

Range Keithley B changed to 20 nA

Range Keithley B changed to 200 nA

Range Keithley B changed to 20 nA

Range Keithley B changed to 200 nA

Range Keithley B changed to 200 pA

Range Keithley B changed to 20 nA

Range Keithley B changed to 200 pA

Range Keithley B changed to 20 nA

Range Keithley B changed to 200 pA

Range Keithley B changed to 20 nA

Range Keithley B changed to 200 pA

Range Keithley B changed to 20 nA

Range Keithley B changed to 200 pA

Range Keithley B changed to 20 nA

Range Keithley B changed to 200 pA

Instrument 2: AMMETER KEITHLEY 6517A A
Measure type: Current
range type: set range value
range value (ampere):  20 nA
Integration time:  set NPLC value
NPLC value: 10.000
Digital filter count: 2
Vsource: OFF
Output Voltage value: -0.000
Vsource range: 100 V
Trigger source: bus

Range Keithley A changed to 200 nA

Range Keithley A changed to 200 pA

Range Keithley A changed to 20 nA

Range Keithley A changed to 200 nA

Range Keithley A changed to 20 nA

Range Keithley A changed to 200 nA

Range Keithley A changed to 20 nA

Range Keithley A changed to 200 nA

Range Keithley A changed to 200 pA

Range Keithley A changed to 20 nA

Range Keithley A changed to 200 pA

Range Keithley A changed to 20 nA

Range Keithley A changed to 200 pA

Range Keithley A changed to 20 nA

Range Keithley A changed to 200 pA

Range Keithley A changed to 20 nA

Range Keithley A changed to 200 pA

Range Keithley A changed to 20 nA

Range Keithley A changed to 200 pA

Instrument 3: AMMETER KEITHLEY 6517A C 
Measure type: Current
range type: set range value
range value (ampere):  2 uA
Integration time:  set NPLC value
NPLC value: 10.000
Digital filter count: 2
Vsource: OFF
Output Voltage value: -0.000
Vsource range: 100 V
Trigger source: bus


________________________________________________________________________________

RelativeTime (msec)	Photon Energy	Var_1	Var_2	INSTR_1_Sample with Bias _(ampere ) 	INSTR_2_Monitor IM_(ampere)  	INSTR_3_Diode A3_(ampere)	I_BPM_sum (Amps)	
________________________________________________________________________________

1.88903000E+5	4.00000037E+0	3.00000000E+0	1.50000000E+1	3.64500000E-13	2.45100000E-13	-1.40000000E-11	8.90757250E-5
1.99693000E+5	4.09999685E+0	3.00000000E+0	1.50000000E+1	4.12500000E-13	2.53600000E-13	-3.00000000E-11	8.90556889E-5
2.09291000E+5	4.19998787E+0	3.00000000E+0	1.50000000E+1	3.87900000E-13	2.51200000E-13	-2.70000000E-11	8.90969174E-5
2.18576000E+5	4.30000001E+0	3.00000000E+0	1.50000000E+1	3.81900000E-13	2.50600000E-13	-3.20000000E-11	8.92548161E-5
2.27587000E+5	4.39999777E+0	3.00000000E+0	1.50000000E+1	4.06600000E-13	2.48100000E-13	-4.80000000E-11	8.89003770E-5
2.36514000E+5	4.50000494E+0	3.00000000E+0	1.50000000E+1	4.02600000E-13	2.51900000E-13	-6.20000000E-11	8.91968565E-5
2.45373000E+5	4.59999779E+0	3.00000000E+0	1.50000000E+1	4.19600000E-13	2.57600000E-13	-3.80000000E-11	8.97732454E-5
2.54317000E+5	4.70000225E+0	3.00000000E+0	1.50000000E+1	4.04400000E-13	2.45800000E-13	-8.00000000E-12	8.95058023E-5
2.62931000E+5	4.79999123E+0	3.00000000E+0	1.50000000E+1	3.56200000E-13	2.50800000E-13	5.40000000E-11	8.97689032E-5
2.71695000E+5	4.90000508E+0	3.00000000E+0	1.50000000E+1	4.04400000E-13	2.66600000E-13	8.90000000E-11	8.93246668E-5
2.80170000E+5	4.99998805E+0	3.00000000E+0	1.50000000E+1	4.21300000E-13	2.64400000E-13	1.23000000E-10	8.94588458E-5
2.88371000E+5	5.10000976E+0	3.00000000E+0	1.50000000E+1	3.74500000E-13	2.69400000E-13	1.75000000E-10	8.96947461E-5
2.96583000E+5	5.20000420E+0	3.00000000E+0	1.50000000E+1	4.52000000E-13	2.77400000E-13	2.02000000E-10	8.92586397E-5
3.04682000E+5	5.29998988E+0	3.00000000E+0	1.50000000E+1	3.77000000E-13	2.74800000E-13	2.05000000E-10	8.96179604E-5
3.12764000E+5	5.40000935E+0	3.00000000E+0	1.50000000E+1	3.96800000E-13	2.75500000E-13	1.96000000E-10	8.97088217E-5
3.20931000E+5	5.49999306E+0	3.00000000E+0	1.50000000E+1	4.28100000E-13	2.87300000E-13	2.00000000E-10	8.91335743E-5
3.28929000E+5	5.60000536E+0	3.00000000E+0	1.50000000E+1	4.07200000E-13	2.80500000E-13	2.08000000E-10	8.92388987E-5
3.36890000E+5	5.69999780E+0	3.00000000E+0	1.50000000E+1	3.93000000E-13	2.90100000E-13	1.94000000E-10	8.91633975E-5
3.44893000E+5	5.80000362E+0	3.00000000E+0	1.50000000E+1	4.18900000E-13	3.04100000E-13	2.02000000E-10	8.93967646E-5
3.52849000E+5	5.90000087E+0	3.00000000E+0	1.50000000E+1	4.19100000E-13	3.27300000E-13	1.91000000E-10	8.96319586E-5
3.60692000E+5	5.99999822E+0	3.00000000E+0	1.50000000E+1	3.99800000E-13	3.23300000E-13	1.88000000E-10	8.89741855E-5
3.68134000E+5	6.09999682E+0	3.00000000E+0	1.50000000E+1	3.99500000E-13	3.42400000E-13	1.84000000E-10	8.93247383E-5
3.75381000E+5	6.20001301E+0	3.00000000E+0	1.50000000E+1	3.75400000E-13	3.67300000E-13	1.84000000E-10	8.96055537E-5
3.82806000E+5	6.29999220E+0	3.00000000E+0	1.50000000E+1	3.68500000E-13	3.91100000E-13	1.84000000E-10	8.93339383E-5
3.89955000E+5	6.39999048E+0	3.00000000E+0	1.50000000E+1	4.42500000E-13	4.11000000E-13	1.94000000E-10	8.93022882E-5
3.97298000E+5	6.49999876E+0	3.00000000E+0	1.50000000E+1	3.65700000E-13	4.50500000E-13	2.06000000E-10	8.92295676E-5
4.04457000E+5	6.60001635E+0	3.00000000E+0	1.50000000E+1	3.62200000E-13	4.90100000E-13	2.30000000E-10	8.91428011E-5
4.11847000E+5	6.69998570E+0	3.00000000E+0	1.50000000E+1	3.90000000E-13	5.29000000E-13	2.65000000E-10	8.91838567E-5
4.19026000E+5	6.79999847E+0	3.00000000E+0	1.50000000E+1	4.09900000E-13	5.95900000E-13	2.99000000E-10	8.93651115E-5
4.26251000E+5	6.89998709E+0	3.00000000E+0	1.50000000E+1	4.03000000E-13	6.71800000E-13	3.70000000E-10	8.94062208E-5
4.33253000E+5	7.00000399E+0	3.00000000E+0	1.50000000E+1	4.17800000E-13	7.66800000E-13	4.22000000E-10	8.91538607E-5
4.40086000E+5	7.10000431E+0	3.00000000E+0	1.50000000E+1	3.43600000E-13	8.63900000E-13	4.63000000E-10	8.90620904E-5
4.46743000E+5	7.19999617E+0	3.00000000E+0	1.50000000E+1	4.05000000E-13	9.66900000E-13	5.25000000E-10	8.95548868E-5
4.53561000E+5	7.30000886E+0	3.00000000E+0	1.50000000E+1	3.47900000E-13	1.06550000E-12	5.79000000E-10	8.93591093E-5
4.60407000E+5	7.40000122E+0	3.00000000E+0	1.50000000E+1	4.34000000E-13	1.14060000E-12	5.79000000E-10	8.92288583E-5
4.67680000E+5	7.49998454E+0	3.00000000E+0	1.50000000E+1	4.05500000E-13	1.12090000E-12	5.08000000E-10	8.93358754E-5
4.74417000E+5	7.59998716E+0	3.00000000E+0	1.50000000E+1	3.84500000E-13	9.57000000E-13	3.10000000E-10	8.90775846E-5
4.81131000E+5	7.70001742E+0	3.00000000E+0	1.50000000E+1	3.78800000E-13	6.76500000E-13	2.10000000E-11	8.90427278E-5
4.87853000E+5	7.80002056E+0	3.00000000E+0	1.50000000E+1	4.06800000E-13	3.99400000E-13	-1.97000000E-10	8.90933709E-5
4.94524000E+5	7.89999762E+0	3.00000000E+0	1.50000000E+1	4.14400000E-13	2.80200000E-13	-2.90000000E-10	8.90887218E-5
5.01213000E+5	7.99999188E+0	3.00000000E+0	1.50000000E+1	4.29900000E-13	2.64200000E-13	-3.05000000E-10	8.89484392E-5
