G:\BEAR_storage\User_Experiments\20220108_arneodo\file(1)_Region 6__0019.txt
Ring Energy (GeV): 2
Lifetime (hours): 17.3036
Scan beginning: 8/2/2022	9:25:18 AM
Ring current (mA): 308.79
Source position: x (mm): -0.003 x' (mrad): 0.003 y (mm): -0.006 y' (mrad): 0
Scan end: 8/2/2022	9:57:31 AM
Ring current (mA): 308.13
Source position: x (mm): -0.003 x' (mrad): 0.003 y (mm): -0.006 y' (mrad): 0.001

SCAN TYPE: PHOTON ENERGY VS VAR_1 VS VAR_2

FILE INFO: FILE INFO:

SCAN PARAMETERS
waiting time (ms): 1000
Number of scans: 1
Current scan number: 1
DARK OFF 
PREDARK OFF 

SCAN PARAMETERS
Regions configuration: 
number of regions: 6
Mirror grating scan: on
Timed acquisition: off
Region 1:
Initial energy (eV): 40.000000
Final energy (eV): 72.000000
Delta energy (eV): 1.000000
Deviation angle choice: Higher order rejection
Deviation angle (°): NaN
Al filter
G1200 channel
range keithley B 20 nA
range keithley C 2 uA
range keithley A 20 nA
Var_1: XM3.000000
Var_2: YM15.000000
Bias CEM (V): 0.000000
Bias Keithley B (V): -30.000000
Name region: 
Region 2:
Initial energy (eV): 70.000000
Final energy (eV): 102.000000
Delta energy (eV): 1.000000
Deviation angle choice: Higher order rejection
Deviation angle (°): NaN
Si filter
G1200 channel
range keithley B 200 nA
range keithley C 20 uA
range keithley A 20 nA
Var_1: XM3.000000
Var_2: YM15.000000
Bias CEM (V): 0.000000
Bias Keithley B (V): -30.000000
Name region: 
Region 3:
Initial energy (eV): 98.000000
Final energy (eV): 260.000000
Delta energy (eV): 1.000000
Deviation angle choice: Higher order rejection
Deviation angle (°): NaN
Full Beam
G1200 channel
range keithley B 200 nA
range keithley C 20 uA
range keithley A 200 nA
Var_1: XM3.000000
Var_2: YM15.000000
Bias CEM (V): 0.000000
Bias Keithley B (V): -30.000000
Name region: 
Region 4:
Initial energy (eV): 255.000000
Final energy (eV): 320.000000
Delta energy (eV): 1.000000
Deviation angle choice: Higher order rejection
Deviation angle (°): NaN
filter Ag 0.6 um
G1200 channel
range keithley B 200 pA
range keithley C 2 uA
range keithley A 200 nA
Var_1: XM3.000000
Var_2: YM15.000000
Bias CEM (V): 0.000000
Bias Keithley B (V): -30.000000
Name region: 
Region 5:
Initial energy (eV): 315.000000
Final energy (eV): 1200.000000
Delta energy (eV): 5.000000
Deviation angle choice: Higher order rejection
Deviation angle (°): NaN
Full Beam
G1200 channel
range keithley B 20 nA
range keithley C 20 uA
range keithley A 200 nA
Var_1: XM3.000000
Var_2: YM15.000000
Bias CEM (V): 0.000000
Bias Keithley B (V): -30.000000
Name region: 
Region 6:
Initial energy (eV): 1190.000000
Final energy (eV): 1500.000000
Delta energy (eV): 5.000000
Deviation angle choice: Higher order rejection
Deviation angle (°): NaN
filter Ag 0.6 um
G1200 channel
range keithley B 200 pA
range keithley C 2 uA
range keithley A 200 nA
Var_1: XM3.000000
Var_2: YM15.000000
Bias CEM (V): 0.000000
Bias Keithley B (V): -30.000000
Name region: 

BEAR MONOCHROMATOR CONFIGURATION: 
Current Grating Position:     160137.60
Current Mirror Position: 298443.4
Current Grating: G1200
P2 phiz position:  0.0000
Mono axis position: 25.0000
Current Photon Energy (eV): 1500.012
Current Deviation Angle: 175.800
Vertical Exit Slits (um): 450.000
Exit slit y axis position: 2.2375
Horizontal Exit Slits (um):  890.000
Exit slit z axis position: 1.9250
Mitutoyo position (mm): 

Dose on sample (mJ/cm^2): NaN

ENERGY CALIBRATION:
offset grating G1200: yes
Delta 0 order G1200:  -500.0
offset grating G1800: not
Delta 0 order G1800:  0.0
offset grating GNIM: not
Delta 0 order GNIM:  0.0
ZERO ORDER POSITIONS:
Grating G1200: Mirror position:  4938.0
Grating position: -105355.0
Grating G1800: 
Mirror position:  4938.0
Grating position: -106345.0
Grating GNIM: 
Mirror position:  10000.0
Grating position: 227300.0

Initial filter: Ag filter 0.6 um

EXPERIMENTAL CHAMBER CONFIGURATION: 
PsiC (deg):   0.036413
Phi Analyzer (degrees): -0.009471
Theta Manipulator (degrees): -45.000040
Theta Analyzer (degrees): -0.000455
PhiM (degrees): -0.006155
XM (mm): 2.999938
YM (mm): 14.999863
ZM (mm): (Warning: for kinetic energy scans, 
this parameter is given in the scan settings) 
-8.300075
TiltM (°): -0.000275

COIL VALUES
Ix (amps):2.950
Iy (amps): 6.790
Iz (amps): 14.440

POLARIZATION SELECTOR CONFIGURATION:
Psi1 (rad): -0.001665535
Psi2 (rad): 0.001417093
Z min position (mm): 46.599650
DZ position (mm): 18.599100
Zmin 0 (mm): 66.500000
DZ0 (mm): 53.000000

BEAM SELECTOR CONFIGURATION:
Zmin position (mm): 158.000000
DZ position (mm): 264.000000
Y+ position (mm): 291.700000
Y- position (mm): NaN

CHANNEL ELECTRON MULTIPLIER CONFIGURATION:
CEM configured: OFF
Bias CEM: 0.000000

FLUORESCENCE DETECTOR CONFIGURATION:
Not configured

LUMINESCENCE MONOCHROMATOR CONFIGURATION:
Optical fiber position (mm): 0.000000
Optical fiber Switch inside: OFF
Optical fiber Switch outside: ON
Monochromator wavelength (A): 229000.000000
Limit Switches: OFF

I0 MONITOR PARAMETERS:
I0 detector position(mm): 1.924999E+2
Lower switch: OFF
Upper switch: OFF
Valve status:open

PRESSURE PARAMETERS:
Monitor chamber pressure (mbar): 1.273e-09
Experimental chamber pressure -ION GAUGE-(mbar): 0.000000E+0

XMCD PARAMETERS:
Xmcd OFF
Xmcd Direction -
Xmcd current (A): 0.000000

Gated scan on
Shutter open time (ms): 689890755
Shutter aperture time (ms): -43147589

Instrument 1: AMMETER KEITHLEY 6517A B
Measure type: Current
range type: set range value
range value (ampere):  200 pA
Integration time:  set NPLC value
NPLC value: 10.000
Digital filter count: 2
SAMPLE BIAS (V): -30.000
Vsource: ON
Output Voltage value: 30.000
Vsource range: 1000 V

Range Keithley B changed to 20 nA

Range Keithley B changed to 200 pA

Range Keithley B changed to 20 nA

Range Keithley B changed to 200 pA

Range Keithley B changed to 20 nA

Range Keithley B changed to 200 pA

Range Keithley B changed to 20 nA

Range Keithley B changed to 200 pA

Range Keithley B changed to 20 nA

Range Keithley B changed to 200 nA

Range Keithley B changed to 20 nA

Range Keithley B changed to 200 nA

Range Keithley B changed to 200 pA

Range Keithley B changed to 20 nA

Range Keithley B changed to 200 pA

Range Keithley B changed to 20 nA

Range Keithley B changed to 200 pA

Range Keithley B changed to 20 nA

Range Keithley B changed to 200 pA

Range Keithley B changed to 20 nA

Range Keithley B changed to 200 pA

Range Keithley B changed to 20 nA

Range Keithley B changed to 200 pA

Range Keithley B changed to 20 nA

Range Keithley B changed to 200 nA

Range Keithley B changed to 200 pA

Range Keithley B changed to 20 nA

Range Keithley B changed to 200 pA

Range Keithley B changed to 20 nA

Range Keithley B changed to 200 nA

Range Keithley B changed to 200 pA

Range Keithley B changed to 20 nA

Range Keithley B changed to 200 pA

Instrument 2: AMMETER KEITHLEY 6517A A
Measure type: Current
range type: set range value
range value (ampere):  20 nA
Integration time:  set NPLC value
NPLC value: 10.000
Digital filter count: 2
Vsource: OFF
Output Voltage value: -0.000
Vsource range: 100 V
Trigger source: bus

Range Keithley A changed to 200 nA

Range Keithley A changed to 200 pA

Range Keithley A changed to 20 nA

Range Keithley A changed to 200 nA

Range Keithley A changed to 20 nA

Range Keithley A changed to 200 nA

Range Keithley A changed to 20 nA

Range Keithley A changed to 200 nA

Range Keithley A changed to 200 pA

Range Keithley A changed to 20 nA

Range Keithley A changed to 200 pA

Range Keithley A changed to 20 nA

Range Keithley A changed to 200 pA

Range Keithley A changed to 20 nA

Range Keithley A changed to 200 pA

Range Keithley A changed to 20 nA

Range Keithley A changed to 200 pA

Range Keithley A changed to 20 nA

Range Keithley A changed to 200 pA

Range Keithley A changed to 20 nA

Range Keithley A changed to 200 nA

Range Keithley A changed to 20 nA

Range Keithley A changed to 200 nA

Instrument 3: AMMETER KEITHLEY 6517A C 
Measure type: Current
range type: set range value
range value (ampere):  2 uA
Integration time:  set NPLC value
NPLC value: 10.000
Digital filter count: 2
Vsource: OFF
Output Voltage value: -0.000
Vsource range: 100 V
Trigger source: bus


Range Keithley C changed to 20 uA


Range Keithley C changed to 2 uA


Range Keithley C changed to 20 uA


Range Keithley C changed to 2 uA


Range Keithley C changed to 20 uA


Range Keithley C changed to 2 uA


________________________________________________________________________________

RelativeTime (msec)	Photon Energy	Var_1	Var_2	INSTR_1_Sample with Bias _(ampere ) 	INSTR_2_Monitor IM_(ampere)  	INSTR_3_Diode A3_(ampere)	I_BPM_sum (Amps)	
________________________________________________________________________________

1.69430700E+6	1.18997160E+3	3.00000000E+0	1.50000000E+1	3.66400000E-13	7.59800000E-10	2.57688000E-7	8.94096243E-5
1.69950900E+6	1.19499820E+3	3.00000000E+0	1.50000000E+1	4.00400000E-13	7.33800000E-10	2.47986000E-7	8.91533421E-5
1.70399500E+6	1.20000747E+3	3.00000000E+0	1.50000000E+1	4.19000000E-13	7.04400000E-10	2.37399000E-7	8.94240844E-5
1.70783200E+6	1.20500466E+3	3.00000000E+0	1.50000000E+1	4.50500000E-13	6.98800000E-10	2.35097000E-7	8.91041385E-5
1.71168200E+6	1.21001395E+3	3.00000000E+0	1.50000000E+1	4.36600000E-13	6.92300000E-10	2.32446000E-7	8.91655343E-5
1.71554200E+6	1.21498397E+3	3.00000000E+0	1.50000000E+1	4.21600000E-13	6.85000000E-10	2.29554000E-7	8.90319513E-5
1.71937400E+6	1.22002015E+3	3.00000000E+0	1.50000000E+1	4.58000000E-13	6.76700000E-10	2.26205000E-7	8.90080647E-5
1.72322400E+6	1.22498551E+3	3.00000000E+0	1.50000000E+1	3.73200000E-13	6.67400000E-10	2.22554000E-7	8.89997171E-5
1.72706700E+6	1.22999950E+3	3.00000000E+0	1.50000000E+1	4.41100000E-13	6.57400000E-10	2.18569000E-7	8.91727911E-5
1.73090800E+6	1.23499979E+3	3.00000000E+0	1.50000000E+1	3.81600000E-13	6.46400000E-10	2.14271000E-7	8.93793332E-5
1.73475600E+6	1.24000042E+3	3.00000000E+0	1.50000000E+1	4.23400000E-13	6.34600000E-10	2.09632000E-7	8.93140661E-5
1.73862000E+6	1.24497904E+3	3.00000000E+0	1.50000000E+1	3.89400000E-13	6.22100000E-10	2.04696000E-7	8.91000019E-5
1.74246700E+6	1.25002813E+3	3.00000000E+0	1.50000000E+1	3.64800000E-13	6.08600000E-10	1.99440000E-7	8.88325529E-5
1.74631200E+6	1.25498272E+3	3.00000000E+0	1.50000000E+1	3.85600000E-13	5.94000000E-10	1.93739000E-7	8.90484797E-5
1.75015200E+6	1.26000746E+3	3.00000000E+0	1.50000000E+1	4.09300000E-13	5.78100000E-10	1.87615000E-7	8.92808901E-5
1.75396100E+6	1.26498758E+3	3.00000000E+0	1.50000000E+1	4.37100000E-13	5.62900000E-10	1.81694000E-7	8.92868506E-5
1.75780100E+6	1.26999060E+3	3.00000000E+0	1.50000000E+1	3.64100000E-13	5.48600000E-10	1.76117000E-7	8.92062592E-5
1.76166200E+6	1.27498974E+3	3.00000000E+0	1.50000000E+1	3.83800000E-13	5.34200000E-10	1.70458000E-7	8.91406970E-5
1.76550000E+6	1.28001200E+3	3.00000000E+0	1.50000000E+1	3.82400000E-13	5.19200000E-10	1.64680000E-7	8.92956751E-5
1.76938900E+6	1.28498200E+3	3.00000000E+0	1.50000000E+1	4.27200000E-13	5.05200000E-10	1.59187000E-7	8.94137638E-5
1.77313100E+6	1.29000273E+3	3.00000000E+0	1.50000000E+1	4.44400000E-13	4.90000000E-10	1.53382000E-7	8.99916428E-5
1.77698500E+6	1.29499375E+3	3.00000000E+0	1.50000000E+1	3.16400000E-13	4.74300000E-10	1.47396000E-7	8.95853328E-5
1.78080700E+6	1.30000907E+3	3.00000000E+0	1.50000000E+1	3.51200000E-13	4.58700000E-10	1.41448000E-7	8.91041594E-5
1.78467400E+6	1.30497897E+3	3.00000000E+0	1.50000000E+1	4.07100000E-13	4.43200000E-10	1.35616000E-7	8.96581131E-5
1.78853000E+6	1.31000682E+3	3.00000000E+0	1.50000000E+1	4.21800000E-13	4.27500000E-10	1.29710000E-7	8.99233866E-5
1.79237900E+6	1.31499156E+3	3.00000000E+0	1.50000000E+1	3.93500000E-13	4.11800000E-10	1.23894000E-7	8.91345011E-5
1.79630800E+6	1.31999524E+3	3.00000000E+0	1.50000000E+1	4.44100000E-13	3.96200000E-10	1.18124000E-7	8.92420368E-5
1.80013500E+6	1.32499347E+3	3.00000000E+0	1.50000000E+1	3.90900000E-13	3.80600000E-10	1.12370000E-7	8.98182052E-5
1.80458000E+6	1.32997993E+3	3.00000000E+0	1.50000000E+1	3.88300000E-13	3.65200000E-10	1.06755000E-7	8.94493001E-5
1.80831300E+6	1.33498872E+3	3.00000000E+0	1.50000000E+1	4.15600000E-13	3.49800000E-10	1.01191000E-7	8.94053089E-5
1.81215100E+6	1.34002399E+3	3.00000000E+0	1.50000000E+1	4.08200000E-13	3.34800000E-10	9.57870000E-8	8.93403547E-5
1.81599600E+6	1.34498578E+3	3.00000000E+0	1.50000000E+1	4.26200000E-13	3.20100000E-10	9.05720000E-8	8.95768630E-5
1.81985000E+6	1.34999789E+3	3.00000000E+0	1.50000000E+1	3.86900000E-13	3.05700000E-10	8.54730000E-8	8.93256950E-5
1.82373600E+6	1.35499054E+3	3.00000000E+0	1.50000000E+1	3.60700000E-13	2.91400000E-10	8.04520000E-8	8.94599425E-5
1.82757300E+6	1.36001742E+3	3.00000000E+0	1.50000000E+1	3.70800000E-13	2.77300000E-10	7.55790000E-8	8.92443853E-5
1.83128600E+6	1.36495605E+3	3.00000000E+0	1.50000000E+1	3.34500000E-13	2.63300000E-10	7.08410000E-8	8.94210326E-5
1.83499500E+6	1.36999944E+3	3.00000000E+0	1.50000000E+1	4.00600000E-13	2.49700000E-10	6.62660000E-8	8.92728197E-5
1.83873700E+6	1.37501523E+3	3.00000000E+0	1.50000000E+1	4.18700000E-13	2.36600000E-10	6.18430000E-8	8.93304872E-5
1.84243600E+6	1.38000050E+3	3.00000000E+0	1.50000000E+1	3.71000000E-13	2.23700000E-10	5.75630000E-8	8.93825012E-5
1.84617800E+6	1.38498473E+3	3.00000000E+0	1.50000000E+1	4.29900000E-13	2.11200000E-10	5.34580000E-8	8.95336645E-5
1.84992000E+6	1.38999083E+3	3.00000000E+0	1.50000000E+1	3.86000000E-13	1.99000000E-10	4.95380000E-8	8.95760792E-5
1.85376500E+6	1.39502123E+3	3.00000000E+0	1.50000000E+1	4.51800000E-13	1.87200000E-10	4.57930000E-8	8.92486232E-5
1.85751700E+6	1.39999458E+3	3.00000000E+0	1.50000000E+1	4.21400000E-13	1.75900000E-10	4.22400000E-8	8.93544184E-5
1.86135600E+6	1.40499913E+3	3.00000000E+0	1.50000000E+1	3.92600000E-13	1.65000000E-10	3.88600000E-8	8.96702993E-5
1.86509200E+6	1.41000133E+3	3.00000000E+0	1.50000000E+1	4.37100000E-13	1.54600000E-10	3.56660000E-8	8.93289196E-5
1.86886500E+6	1.41499204E+3	3.00000000E+0	1.50000000E+1	4.01900000E-13	1.44500000E-10	3.26720000E-8	8.93868732E-5
1.87256600E+6	1.41997792E+3	3.00000000E+0	1.50000000E+1	4.42200000E-13	1.35000000E-10	2.98100000E-8	8.97312629E-5
1.87633600E+6	1.42500085E+3	3.00000000E+0	1.50000000E+1	3.92400000E-13	1.25800000E-10	2.71940000E-8	8.95717519E-5
1.88006300E+6	1.43002365E+3	3.00000000E+0	1.50000000E+1	4.52700000E-13	1.17200000E-10	2.47020000E-8	8.93039869E-5
1.88378200E+6	1.43497744E+3	3.00000000E+0	1.50000000E+1	3.88400000E-13	1.09000000E-10	2.24390000E-8	8.90542315E-5
1.88747800E+6	1.44000356E+3	3.00000000E+0	1.50000000E+1	4.01600000E-13	1.01200000E-10	2.02700000E-8	8.95701992E-5
1.89119500E+6	1.44498540E+3	3.00000000E+0	1.50000000E+1	4.24400000E-13	9.39000000E-11	1.83150000E-8	8.91576307E-5
1.89491400E+6	1.44999692E+3	3.00000000E+0	1.50000000E+1	4.10400000E-13	8.70000000E-11	1.64730000E-8	8.92325180E-5
1.89861000E+6	1.45497941E+3	3.00000000E+0	1.50000000E+1	4.14800000E-13	8.05000000E-11	1.47860000E-8	8.92971831E-5
1.90233300E+6	1.46002195E+3	3.00000000E+0	1.50000000E+1	4.41100000E-13	7.44000000E-11	1.32710000E-8	8.94231486E-5
1.90604400E+6	1.46499004E+3	3.00000000E+0	1.50000000E+1	4.21300000E-13	6.88000000E-11	1.18420000E-8	8.91493933E-5
1.90974000E+6	1.46999756E+3	3.00000000E+0	1.50000000E+1	4.22700000E-13	6.34000000E-11	1.05320000E-8	8.93555658E-5
1.91346900E+6	1.47500655E+3	3.00000000E+0	1.50000000E+1	3.86500000E-13	5.84000000E-11	9.38400000E-9	8.95385611E-5
1.91723500E+6	1.48000277E+3	3.00000000E+0	1.50000000E+1	4.03900000E-13	5.37000000E-11	8.27300000E-9	8.95496058E-5
1.92096000E+6	1.48498231E+3	3.00000000E+0	1.50000000E+1	3.99000000E-13	4.95000000E-11	7.32700000E-9	8.97701668E-5
1.92466700E+6	1.48998519E+3	3.00000000E+0	1.50000000E+1	4.37600000E-13	4.56000000E-11	6.49600000E-9	8.91368644E-5
1.92843600E+6	1.49503552E+3	3.00000000E+0	1.50000000E+1	3.45100000E-13	4.20000000E-11	5.74500000E-9	8.92576860E-5
1.93214600E+6	1.50000493E+3	3.00000000E+0	1.50000000E+1	4.17400000E-13	3.87000000E-11	5.06500000E-9	8.94717740E-5
