G:\BEAR_storage\User_Experiments\20220108_arneodo\file(1)_Region 4__0019.txt
Ring Energy (GeV): 2
Lifetime (hours): 17.3036
Scan beginning: 8/2/2022	9:25:18 AM
Ring current (mA): 308.79
Source position: x (mm): -0.003 x' (mrad): 0.003 y (mm): -0.006 y' (mrad): 0
Scan end: 8/2/2022	9:43:15 AM
Ring current (mA): 308.62
Source position: x (mm): -0.004 x' (mrad): 0.004 y (mm): -0.007 y' (mrad): 0

SCAN TYPE: PHOTON ENERGY VS VAR_1 VS VAR_2

FILE INFO: FILE INFO:

SCAN PARAMETERS
waiting time (ms): 1000
Number of scans: 1
Current scan number: 1
DARK OFF 
PREDARK OFF 

SCAN PARAMETERS
Regions configuration: 
number of regions: 6
Mirror grating scan: on
Timed acquisition: off
Region 1:
Initial energy (eV): 40.000000
Final energy (eV): 72.000000
Delta energy (eV): 1.000000
Deviation angle choice: Higher order rejection
Deviation angle (°): NaN
Al filter
G1200 channel
range keithley B 20 nA
range keithley C 2 uA
range keithley A 20 nA
Var_1: XM3.000000
Var_2: YM15.000000
Bias CEM (V): 0.000000
Bias Keithley B (V): -30.000000
Name region: 
Region 2:
Initial energy (eV): 70.000000
Final energy (eV): 102.000000
Delta energy (eV): 1.000000
Deviation angle choice: Higher order rejection
Deviation angle (°): NaN
Si filter
G1200 channel
range keithley B 200 nA
range keithley C 20 uA
range keithley A 20 nA
Var_1: XM3.000000
Var_2: YM15.000000
Bias CEM (V): 0.000000
Bias Keithley B (V): -30.000000
Name region: 
Region 3:
Initial energy (eV): 98.000000
Final energy (eV): 260.000000
Delta energy (eV): 1.000000
Deviation angle choice: Higher order rejection
Deviation angle (°): NaN
Full Beam
G1200 channel
range keithley B 200 nA
range keithley C 20 uA
range keithley A 200 nA
Var_1: XM3.000000
Var_2: YM15.000000
Bias CEM (V): 0.000000
Bias Keithley B (V): -30.000000
Name region: 
Region 4:
Initial energy (eV): 255.000000
Final energy (eV): 320.000000
Delta energy (eV): 1.000000
Deviation angle choice: Higher order rejection
Deviation angle (°): NaN
filter Ag 0.6 um
G1200 channel
range keithley B 200 pA
range keithley C 2 uA
range keithley A 200 nA
Var_1: XM3.000000
Var_2: YM15.000000
Bias CEM (V): 0.000000
Bias Keithley B (V): -30.000000
Name region: 
Region 5:
Initial energy (eV): 315.000000
Final energy (eV): 1200.000000
Delta energy (eV): 5.000000
Deviation angle choice: Higher order rejection
Deviation angle (°): NaN
Full Beam
G1200 channel
range keithley B 20 nA
range keithley C 20 uA
range keithley A 200 nA
Var_1: XM3.000000
Var_2: YM15.000000
Bias CEM (V): 0.000000
Bias Keithley B (V): -30.000000
Name region: 
Region 6:
Initial energy (eV): 1190.000000
Final energy (eV): 1500.000000
Delta energy (eV): 5.000000
Deviation angle choice: Higher order rejection
Deviation angle (°): NaN
filter Ag 0.6 um
G1200 channel
range keithley B 200 pA
range keithley C 2 uA
range keithley A 200 nA
Var_1: XM3.000000
Var_2: YM15.000000
Bias CEM (V): 0.000000
Bias Keithley B (V): -30.000000
Name region: 

BEAR MONOCHROMATOR CONFIGURATION: 
Current Grating Position:     160137.60
Current Mirror Position: 298443.4
Current Grating: G1200
P2 phiz position:  0.0000
Mono axis position: 25.0000
Current Photon Energy (eV): 1500.012
Current Deviation Angle: 175.800
Vertical Exit Slits (um): 450.000
Exit slit y axis position: 2.2375
Horizontal Exit Slits (um):  890.000
Exit slit z axis position: 1.9250
Mitutoyo position (mm): 

Dose on sample (mJ/cm^2): NaN

ENERGY CALIBRATION:
offset grating G1200: yes
Delta 0 order G1200:  -500.0
offset grating G1800: not
Delta 0 order G1800:  0.0
offset grating GNIM: not
Delta 0 order GNIM:  0.0
ZERO ORDER POSITIONS:
Grating G1200: Mirror position:  4938.0
Grating position: -105355.0
Grating G1800: 
Mirror position:  4938.0
Grating position: -106345.0
Grating GNIM: 
Mirror position:  10000.0
Grating position: 227300.0

Initial filter: Ag filter 0.6 um

EXPERIMENTAL CHAMBER CONFIGURATION: 
PsiC (deg):   0.036413
Phi Analyzer (degrees): -0.009471
Theta Manipulator (degrees): -45.000040
Theta Analyzer (degrees): -0.000455
PhiM (degrees): -0.006155
XM (mm): 2.999938
YM (mm): 14.999863
ZM (mm): (Warning: for kinetic energy scans, 
this parameter is given in the scan settings) 
-8.300075
TiltM (°): -0.000275

COIL VALUES
Ix (amps):2.950
Iy (amps): 6.790
Iz (amps): 14.440

POLARIZATION SELECTOR CONFIGURATION:
Psi1 (rad): -0.001665535
Psi2 (rad): 0.001417093
Z min position (mm): 46.599650
DZ position (mm): 18.599100
Zmin 0 (mm): 66.500000
DZ0 (mm): 53.000000

BEAM SELECTOR CONFIGURATION:
Zmin position (mm): 158.000000
DZ position (mm): 264.000000
Y+ position (mm): 291.700000
Y- position (mm): NaN

CHANNEL ELECTRON MULTIPLIER CONFIGURATION:
CEM configured: OFF
Bias CEM: 0.000000

FLUORESCENCE DETECTOR CONFIGURATION:
Not configured

LUMINESCENCE MONOCHROMATOR CONFIGURATION:
Optical fiber position (mm): 0.000000
Optical fiber Switch inside: OFF
Optical fiber Switch outside: ON
Monochromator wavelength (A): 229000.000000
Limit Switches: OFF

I0 MONITOR PARAMETERS:
I0 detector position(mm): 1.924999E+2
Lower switch: OFF
Upper switch: OFF
Valve status:open

PRESSURE PARAMETERS:
Monitor chamber pressure (mbar): 1.273e-09
Experimental chamber pressure -ION GAUGE-(mbar): 0.000000E+0

XMCD PARAMETERS:
Xmcd OFF
Xmcd Direction -
Xmcd current (A): 0.000000

Gated scan on
Shutter open time (ms): 689890755
Shutter aperture time (ms): -43147589

Instrument 1: AMMETER KEITHLEY 6517A B
Measure type: Current
range type: set range value
range value (ampere):  200 pA
Integration time:  set NPLC value
NPLC value: 10.000
Digital filter count: 2
SAMPLE BIAS (V): -30.000
Vsource: ON
Output Voltage value: 30.000
Vsource range: 1000 V

Range Keithley B changed to 20 nA

Range Keithley B changed to 200 pA

Range Keithley B changed to 20 nA

Range Keithley B changed to 200 pA

Range Keithley B changed to 20 nA

Range Keithley B changed to 200 pA

Range Keithley B changed to 20 nA

Range Keithley B changed to 200 pA

Range Keithley B changed to 20 nA

Range Keithley B changed to 200 nA

Range Keithley B changed to 20 nA

Range Keithley B changed to 200 nA

Range Keithley B changed to 200 pA

Range Keithley B changed to 20 nA

Range Keithley B changed to 200 pA

Range Keithley B changed to 20 nA

Range Keithley B changed to 200 pA

Range Keithley B changed to 20 nA

Range Keithley B changed to 200 pA

Range Keithley B changed to 20 nA

Range Keithley B changed to 200 pA

Range Keithley B changed to 20 nA

Range Keithley B changed to 200 pA

Range Keithley B changed to 20 nA

Range Keithley B changed to 200 nA

Range Keithley B changed to 200 pA

Range Keithley B changed to 20 nA

Range Keithley B changed to 200 pA

Range Keithley B changed to 20 nA

Range Keithley B changed to 200 nA

Range Keithley B changed to 200 pA

Range Keithley B changed to 20 nA

Instrument 2: AMMETER KEITHLEY 6517A A
Measure type: Current
range type: set range value
range value (ampere):  20 nA
Integration time:  set NPLC value
NPLC value: 10.000
Digital filter count: 2
Vsource: OFF
Output Voltage value: -0.000
Vsource range: 100 V
Trigger source: bus

Range Keithley A changed to 200 nA

Range Keithley A changed to 200 pA

Range Keithley A changed to 20 nA

Range Keithley A changed to 200 nA

Range Keithley A changed to 20 nA

Range Keithley A changed to 200 nA

Range Keithley A changed to 20 nA

Range Keithley A changed to 200 nA

Range Keithley A changed to 200 pA

Range Keithley A changed to 20 nA

Range Keithley A changed to 200 pA

Range Keithley A changed to 20 nA

Range Keithley A changed to 200 pA

Range Keithley A changed to 20 nA

Range Keithley A changed to 200 pA

Range Keithley A changed to 20 nA

Range Keithley A changed to 200 pA

Range Keithley A changed to 20 nA

Range Keithley A changed to 200 pA

Range Keithley A changed to 20 nA

Range Keithley A changed to 200 nA

Range Keithley A changed to 20 nA

Range Keithley A changed to 200 nA

Instrument 3: AMMETER KEITHLEY 6517A C 
Measure type: Current
range type: set range value
range value (ampere):  2 uA
Integration time:  set NPLC value
NPLC value: 10.000
Digital filter count: 2
Vsource: OFF
Output Voltage value: -0.000
Vsource range: 100 V
Trigger source: bus


Range Keithley C changed to 20 uA


Range Keithley C changed to 2 uA


Range Keithley C changed to 20 uA


Range Keithley C changed to 2 uA


Range Keithley C changed to 20 uA


________________________________________________________________________________

RelativeTime (msec)	Photon Energy	Var_1	Var_2	INSTR_1_Sample with Bias _(ampere ) 	INSTR_2_Monitor IM_(ampere)  	INSTR_3_Diode A3_(ampere)	I_BPM_sum (Amps)	
________________________________________________________________________________

7.95481000E+5	2.55010826E+2	3.00000000E+0	1.50000000E+1	4.15200000E-13	4.79000000E-11	2.72220000E-8	8.92197894E-5
8.00431000E+5	2.55993062E+2	3.00000000E+0	1.50000000E+1	3.62300000E-13	4.89000000E-11	2.73730000E-8	8.93893676E-5
8.04604000E+5	2.57002032E+2	3.00000000E+0	1.50000000E+1	4.02800000E-13	4.95000000E-11	2.75030000E-8	8.94964384E-5
8.08751000E+5	2.57998297E+2	3.00000000E+0	1.50000000E+1	4.28500000E-13	5.00000000E-11	2.76510000E-8	8.91181635E-5
8.12915000E+5	2.58997516E+2	3.00000000E+0	1.50000000E+1	3.46600000E-13	5.05000000E-11	2.78000000E-8	8.97883075E-5
8.17101000E+5	2.59998409E+2	3.00000000E+0	1.50000000E+1	4.12800000E-13	5.11000000E-11	2.79600000E-8	8.93063681E-5
8.21261000E+5	2.60998054E+2	3.00000000E+0	1.50000000E+1	3.97000000E-13	5.16000000E-11	2.81450000E-8	8.92557102E-5
8.25469000E+5	2.62001244E+2	3.00000000E+0	1.50000000E+1	4.52900000E-13	5.22000000E-11	2.83380000E-8	8.96065193E-5
8.29676000E+5	2.63001421E+2	3.00000000E+0	1.50000000E+1	4.28000000E-13	5.27000000E-11	2.85700000E-8	8.91047554E-5
8.33814000E+5	2.63996811E+2	3.00000000E+0	1.50000000E+1	4.39800000E-13	5.34000000E-11	2.88140000E-8	8.96759230E-5
8.37985000E+5	2.65000303E+2	3.00000000E+0	1.50000000E+1	4.04900000E-13	5.41000000E-11	2.90890000E-8	8.96213042E-5
8.42129000E+5	2.65998976E+2	3.00000000E+0	1.50000000E+1	4.04800000E-13	5.49000000E-11	2.93740000E-8	8.91517775E-5
8.46319000E+5	2.67000962E+2	3.00000000E+0	1.50000000E+1	4.00800000E-13	5.56000000E-11	2.96390000E-8	8.94413906E-5
8.50499000E+5	2.68002027E+2	3.00000000E+0	1.50000000E+1	4.20100000E-13	5.65000000E-11	2.99150000E-8	8.92974066E-5
8.54655000E+5	2.68998563E+2	3.00000000E+0	1.50000000E+1	4.15800000E-13	5.73000000E-11	3.01730000E-8	8.93045144E-5
8.58804000E+5	2.70006455E+2	3.00000000E+0	1.50000000E+1	3.65200000E-13	5.81000000E-11	3.03950000E-8	8.92974453E-5
8.62994000E+5	2.70997153E+2	3.00000000E+0	1.50000000E+1	4.59200000E-13	5.89000000E-11	3.05500000E-8	8.91423004E-5
8.67163000E+5	2.71998784E+2	3.00000000E+0	1.50000000E+1	3.62300000E-13	5.97000000E-11	3.06270000E-8	8.94788193E-5
8.71300000E+5	2.73000884E+2	3.00000000E+0	1.50000000E+1	4.18400000E-13	6.04000000E-11	3.06140000E-8	8.89993923E-5
8.75493000E+5	2.74003785E+2	3.00000000E+0	1.50000000E+1	4.26100000E-13	6.10000000E-11	3.05200000E-8	8.94104230E-5
8.79664000E+5	2.74996575E+2	3.00000000E+0	1.50000000E+1	3.95300000E-13	6.16000000E-11	3.02730000E-8	8.94119488E-5
8.83845000E+5	2.75999462E+2	3.00000000E+0	1.50000000E+1	3.97600000E-13	6.20000000E-11	2.99260000E-8	8.90604632E-5
8.88777000E+5	2.76997236E+2	3.00000000E+0	1.50000000E+1	4.02100000E-13	6.24000000E-11	2.94120000E-8	8.89807062E-5
8.92975000E+5	2.77999387E+2	3.00000000E+0	1.50000000E+1	4.01600000E-13	6.28000000E-11	2.88500000E-8	8.94604432E-5
8.97131000E+5	2.78995719E+2	3.00000000E+0	1.50000000E+1	4.04600000E-13	6.32000000E-11	2.81030000E-8	8.93697190E-5
9.01288000E+5	2.80002070E+2	3.00000000E+0	1.50000000E+1	4.02900000E-13	6.36000000E-11	2.72570000E-8	8.96453487E-5
9.05455000E+5	2.81002203E+2	3.00000000E+0	1.50000000E+1	3.85200000E-13	6.40000000E-11	2.62940000E-8	8.93105017E-5
9.09647000E+5	2.82008193E+2	3.00000000E+0	1.50000000E+1	3.87500000E-13	6.43000000E-11	2.51220000E-8	8.91920107E-5
9.13815000E+5	2.82996647E+2	3.00000000E+0	1.50000000E+1	3.74000000E-13	6.47000000E-11	2.37850000E-8	8.90552120E-5
9.17981000E+5	2.84002098E+2	3.00000000E+0	1.50000000E+1	3.70800000E-13	6.50000000E-11	2.20670000E-8	8.92791825E-5
9.22136000E+5	2.84993573E+2	3.00000000E+0	1.50000000E+1	4.28700000E-13	6.50000000E-11	1.99990000E-8	8.93197971E-5
9.26373000E+5	2.86001495E+2	3.00000000E+0	1.50000000E+1	3.85000000E-13	6.44000000E-11	1.73160000E-8	8.94619929E-5
9.30542000E+5	2.86995873E+2	3.00000000E+0	1.50000000E+1	3.94000000E-13	6.51000000E-11	1.36450000E-8	8.92899262E-5
9.34730000E+5	2.87996595E+2	3.00000000E+0	1.50000000E+1	3.37000000E-13	7.09000000E-11	8.04500000E-9	8.90052246E-5
9.38900000E+5	2.88999457E+2	3.00000000E+0	1.50000000E+1	3.83800000E-13	9.78000000E-11	2.59200000E-9	8.94604939E-5
9.43108000E+5	2.90001833E+2	3.00000000E+0	1.50000000E+1	4.13300000E-13	1.31900000E-10	7.87000000E-10	8.93111693E-5
9.47320000E+5	2.91002821E+2	3.00000000E+0	1.50000000E+1	3.78400000E-13	1.51600000E-10	1.01400000E-9	8.91416596E-5
9.51510000E+5	2.92001100E+2	3.00000000E+0	1.50000000E+1	4.17700000E-13	1.75200000E-10	9.13000000E-10	8.90597628E-5
9.55672000E+5	2.92993615E+2	3.00000000E+0	1.50000000E+1	3.75800000E-13	1.95200000E-10	6.76000000E-10	8.92592477E-5
9.59839000E+5	2.94000246E+2	3.00000000E+0	1.50000000E+1	4.46300000E-13	1.97800000E-10	5.34000000E-10	8.95375478E-5
9.64029000E+5	2.94997079E+2	3.00000000E+0	1.50000000E+1	3.61700000E-13	1.91800000E-10	5.33000000E-10	8.92316060E-5
9.68164000E+5	2.95997000E+2	3.00000000E+0	1.50000000E+1	4.11600000E-13	1.85400000E-10	6.59000000E-10	8.94058573E-5
9.72323000E+5	2.96998311E+2	3.00000000E+0	1.50000000E+1	3.84800000E-13	1.87600000E-10	8.42000000E-10	8.92458813E-5
9.76476000E+5	2.98005144E+2	3.00000000E+0	1.50000000E+1	3.92600000E-13	1.96300000E-10	1.06400000E-9	8.93772023E-5
9.80637000E+5	2.98999875E+2	3.00000000E+0	1.50000000E+1	4.17800000E-13	2.06200000E-10	1.26900000E-9	8.91733097E-5
9.84816000E+5	3.00000175E+2	3.00000000E+0	1.50000000E+1	3.66500000E-13	2.14800000E-10	1.47600000E-9	8.92867493E-5
9.88974000E+5	3.00996110E+2	3.00000000E+0	1.50000000E+1	3.69800000E-13	2.22300000E-10	1.67500000E-9	8.94516962E-5
9.93145000E+5	3.01994064E+2	3.00000000E+0	1.50000000E+1	3.75900000E-13	2.27900000E-10	1.84000000E-9	8.93397825E-5
9.97316000E+5	3.03000075E+2	3.00000000E+0	1.50000000E+1	3.90400000E-13	2.33400000E-10	2.04600000E-9	8.98030865E-5
1.00146400E+6	3.04001275E+2	3.00000000E+0	1.50000000E+1	3.81500000E-13	2.38900000E-10	2.25100000E-9	8.92846154E-5
1.00565700E+6	3.05008022E+2	3.00000000E+0	1.50000000E+1	4.35300000E-13	2.44100000E-10	2.46200000E-9	8.94100802E-5
1.00981800E+6	3.06004710E+2	3.00000000E+0	1.50000000E+1	3.76900000E-13	2.49500000E-10	2.72100000E-9	8.96559792E-5
1.01395400E+6	3.06994458E+2	3.00000000E+0	1.50000000E+1	3.77500000E-13	2.55100000E-10	2.99900000E-9	8.96621841E-5
1.01812000E+6	3.07996114E+2	3.00000000E+0	1.50000000E+1	3.84400000E-13	2.60500000E-10	3.32900000E-9	8.94535767E-5
1.02230400E+6	3.09000026E+2	3.00000000E+0	1.50000000E+1	4.18200000E-13	2.65700000E-10	3.70700000E-9	8.95167189E-5
1.02646000E+6	3.10001748E+2	3.00000000E+0	1.50000000E+1	4.66400000E-13	2.71300000E-10	4.13100000E-9	9.00138068E-5
1.03062600E+6	3.11005050E+2	3.00000000E+0	1.50000000E+1	4.11200000E-13	2.77400000E-10	4.62500000E-9	8.96001654E-5
1.03475600E+6	3.11994557E+2	3.00000000E+0	1.50000000E+1	3.35900000E-13	2.84100000E-10	5.20800000E-9	8.96716523E-5
1.03895200E+6	3.13001669E+2	3.00000000E+0	1.50000000E+1	4.08800000E-13	2.91400000E-10	5.84400000E-9	8.98249316E-5
1.04312000E+6	3.13997283E+2	3.00000000E+0	1.50000000E+1	4.05500000E-13	2.99400000E-10	6.54000000E-9	8.98085344E-5
1.04732000E+6	3.15002003E+2	3.00000000E+0	1.50000000E+1	3.82000000E-13	3.07400000E-10	7.20400000E-9	8.91953128E-5
1.05148800E+6	3.16006715E+2	3.00000000E+0	1.50000000E+1	4.31600000E-13	3.14600000E-10	7.79100000E-9	8.96954316E-5
1.05562700E+6	3.16999784E+2	3.00000000E+0	1.50000000E+1	3.86800000E-13	3.20400000E-10	8.28600000E-9	8.98993003E-5
1.05979300E+6	3.17995831E+2	3.00000000E+0	1.50000000E+1	4.39300000E-13	3.24800000E-10	8.67800000E-9	8.93233704E-5
1.06397100E+6	3.18994094E+2	3.00000000E+0	1.50000000E+1	3.84400000E-13	3.27900000E-10	8.95900000E-9	8.91290682E-5
1.06812000E+6	3.20000178E+2	3.00000000E+0	1.50000000E+1	3.72600000E-13	3.30400000E-10	9.16100000E-9	8.93558013E-5
