G:\BEAR_storage\User_Experiments\20220108_arneodo\file(1)_Region 4__0018.txt
Ring Energy (GeV): 2
Lifetime (hours): 16.8797
Scan beginning: 8/1/2022	8:53:45 PM
Ring current (mA): 308.44
Source position: x (mm): -0.003 x' (mrad): 0.003 y (mm): -0.005 y' (mrad): 0.001
Scan end: 8/1/2022	9:11:51 PM
Ring current (mA): 307.94
Source position: x (mm): -0.002 x' (mrad): 0.003 y (mm): -0.005 y' (mrad): 0.001

SCAN TYPE: PHOTON ENERGY VS VAR_1 VS VAR_2

FILE INFO: FILE INFO:

SCAN PARAMETERS
waiting time (ms): 0
Number of scans: 1
Current scan number: 1
DARK OFF 
PREDARK OFF 

SCAN PARAMETERS
Regions configuration: 
number of regions: 6
Mirror grating scan: on
Timed acquisition: off
Region 1:
Initial energy (eV): 40.000000
Final energy (eV): 72.000000
Delta energy (eV): 1.000000
Deviation angle choice: Higher order rejection
Deviation angle (°): NaN
Al filter
G1200 channel
range keithley B 20 nA
range keithley C 2 uA
range keithley A 20 nA
Var_1: XM3.000000
Var_2: YM15.000000
Bias CEM (V): 0.000000
Bias Keithley B (V): -30.000000
Name region: 
Region 2:
Initial energy (eV): 70.000000
Final energy (eV): 102.000000
Delta energy (eV): 1.000000
Deviation angle choice: Higher order rejection
Deviation angle (°): NaN
Si filter
G1200 channel
range keithley B 200 nA
range keithley C 2 uA
range keithley A 20 nA
Var_1: XM3.000000
Var_2: YM15.000000
Bias CEM (V): 0.000000
Bias Keithley B (V): -30.000000
Name region: 
Region 3:
Initial energy (eV): 98.000000
Final energy (eV): 260.000000
Delta energy (eV): 1.000000
Deviation angle choice: Higher order rejection
Deviation angle (°): NaN
Full Beam
G1200 channel
range keithley B 200 nA
range keithley C 20 uA
range keithley A 200 nA
Var_1: XM3.000000
Var_2: YM15.000000
Bias CEM (V): 0.000000
Bias Keithley B (V): -30.000000
Name region: 
Region 4:
Initial energy (eV): 255.000000
Final energy (eV): 320.000000
Delta energy (eV): 1.000000
Deviation angle choice: Higher order rejection
Deviation angle (°): NaN
filter Ag 0.6 um
G1200 channel
range keithley B 200 pA
range keithley C 2 uA
range keithley A 200 nA
Var_1: XM3.000000
Var_2: YM15.000000
Bias CEM (V): 0.000000
Bias Keithley B (V): -30.000000
Name region: 
Region 5:
Initial energy (eV): 315.000000
Final energy (eV): 1200.000000
Delta energy (eV): 5.000000
Deviation angle choice: Higher order rejection
Deviation angle (°): NaN
Full Beam
G1200 channel
range keithley B 20 nA
range keithley C 2 uA
range keithley A 200 nA
Var_1: XM3.000000
Var_2: YM15.000000
Bias CEM (V): 0.000000
Bias Keithley B (V): -30.000000
Name region: 
Region 6:
Initial energy (eV): 1190.000000
Final energy (eV): 1500.000000
Delta energy (eV): 5.000000
Deviation angle choice: Higher order rejection
Deviation angle (°): NaN
filter Ag 0.6 um
G1200 channel
range keithley B 200 pA
range keithley C 2 uA
range keithley A 200 nA
Var_1: XM3.000000
Var_2: YM15.000000
Bias CEM (V): 0.000000
Bias Keithley B (V): -30.000000
Name region: 

BEAR MONOCHROMATOR CONFIGURATION: 
Current Grating Position:     200055.50
Current Mirror Position: 10000.0
Current Grating: G1200
P2 phiz position:  0.0000
Mono axis position: 25.0000
Current Photon Energy (eV): -17.326
Current Deviation Angle: 155.552
Vertical Exit Slits (um): 450.000
Exit slit y axis position: 2.2375
Horizontal Exit Slits (um):  890.000
Exit slit z axis position: 1.9250
Mitutoyo position (mm): 

Dose on sample (mJ/cm^2): NaN

ENERGY CALIBRATION:
offset grating G1200: yes
Delta 0 order G1200:  -500.0
offset grating G1800: not
Delta 0 order G1800:  0.0
offset grating GNIM: not
Delta 0 order GNIM:  0.0
ZERO ORDER POSITIONS:
Grating G1200: Mirror position:  4938.0
Grating position: -105355.0
Grating G1800: 
Mirror position:  4938.0
Grating position: -106345.0
Grating GNIM: 
Mirror position:  10000.0
Grating position: 227300.0

Initial filter: Al filter

EXPERIMENTAL CHAMBER CONFIGURATION: 
PsiC (deg):   0.036413
Phi Analyzer (degrees): -0.009471
Theta Manipulator (degrees): -45.000040
Theta Analyzer (degrees): -0.000455
PhiM (degrees): -0.006155
XM (mm): 2.999938
YM (mm): 14.999863
ZM (mm): (Warning: for kinetic energy scans, 
this parameter is given in the scan settings) 
-8.300075
TiltM (°): -0.000275

COIL VALUES
Ix (amps):2.950
Iy (amps): 6.790
Iz (amps): 14.440

POLARIZATION SELECTOR CONFIGURATION:
Psi1 (rad): -0.001665535
Psi2 (rad): 0.001417093
Z min position (mm): 46.599650
DZ position (mm): 18.599100
Zmin 0 (mm): 66.500000
DZ0 (mm): 53.000000

BEAM SELECTOR CONFIGURATION:
Zmin position (mm): 158.000000
DZ position (mm): 264.000000
Y+ position (mm): 291.700000
Y- position (mm): NaN

CHANNEL ELECTRON MULTIPLIER CONFIGURATION:
CEM configured: OFF
Bias CEM: 0.000000

FLUORESCENCE DETECTOR CONFIGURATION:
Not configured

LUMINESCENCE MONOCHROMATOR CONFIGURATION:
Optical fiber position (mm): 0.000000
Optical fiber Switch inside: OFF
Optical fiber Switch outside: ON
Monochromator wavelength (A): 229000.000000
Limit Switches: OFF

I0 MONITOR PARAMETERS:
I0 detector position(mm): 1.924999E+2
Lower switch: OFF
Upper switch: OFF
Valve status:open

PRESSURE PARAMETERS:
Monitor chamber pressure (mbar): 1.143e-09
Experimental chamber pressure -ION GAUGE-(mbar): 0.000000E+0

XMCD PARAMETERS:
Xmcd OFF
Xmcd Direction -
Xmcd current (A): 0.000000

Gated scan on
Shutter open time (ms): 644793430
Shutter aperture time (ms): -8138340

Instrument 1: AMMETER KEITHLEY 6517A B
Measure type: Current
range type: set range value
range value (ampere):  200 pA
Integration time:  set NPLC value
NPLC value: 10.000
Digital filter count: 2
SAMPLE BIAS (V): -30.000
Vsource: ON
Output Voltage value: 30.000
Vsource range: 1000 V

Range Keithley B changed to 20 nA

Range Keithley B changed to 200 pA

Range Keithley B changed to 20 nA

Range Keithley B changed to 200 pA

Range Keithley B changed to 20 nA

Range Keithley B changed to 200 pA

Range Keithley B changed to 20 nA

Range Keithley B changed to 200 pA

Range Keithley B changed to 20 nA

Range Keithley B changed to 200 nA

Range Keithley B changed to 20 nA

Range Keithley B changed to 200 nA

Range Keithley B changed to 200 pA

Range Keithley B changed to 20 nA

Range Keithley B changed to 200 pA

Range Keithley B changed to 20 nA

Range Keithley B changed to 200 pA

Range Keithley B changed to 20 nA

Range Keithley B changed to 200 pA

Range Keithley B changed to 20 nA

Range Keithley B changed to 200 pA

Range Keithley B changed to 20 nA

Range Keithley B changed to 200 pA

Range Keithley B changed to 20 nA

Range Keithley B changed to 200 nA

Range Keithley B changed to 200 pA

Range Keithley B changed to 20 nA

Instrument 2: AMMETER KEITHLEY 6517A A
Measure type: Current
range type: set range value
range value (ampere):  20 nA
Integration time:  set NPLC value
NPLC value: 10.000
Digital filter count: 2
Vsource: OFF
Output Voltage value: -0.000
Vsource range: 100 V
Trigger source: bus

Range Keithley A changed to 200 nA

Range Keithley A changed to 200 pA

Range Keithley A changed to 20 nA

Range Keithley A changed to 200 nA

Range Keithley A changed to 20 nA

Range Keithley A changed to 200 nA

Range Keithley A changed to 20 nA

Range Keithley A changed to 200 nA

Range Keithley A changed to 200 pA

Range Keithley A changed to 20 nA

Range Keithley A changed to 200 pA

Range Keithley A changed to 20 nA

Range Keithley A changed to 200 pA

Range Keithley A changed to 20 nA

Range Keithley A changed to 200 pA

Range Keithley A changed to 20 nA

Range Keithley A changed to 200 pA

Range Keithley A changed to 20 nA

Range Keithley A changed to 200 pA

Range Keithley A changed to 20 nA

Range Keithley A changed to 200 nA

Instrument 3: AMMETER KEITHLEY 6517A C 
Measure type: Current
range type: set range value
range value (ampere):  2 uA
Integration time:  set NPLC value
NPLC value: 10.000
Digital filter count: 2
Vsource: OFF
Output Voltage value: -0.000
Vsource range: 100 V
Trigger source: bus


Range Keithley C changed to 20 uA


Range Keithley C changed to 2 uA


________________________________________________________________________________

RelativeTime (msec)	Photon Energy	Var_1	Var_2	INSTR_1_Sample with Bias _(ampere ) 	INSTR_2_Monitor IM_(ampere)  	INSTR_3_Diode A3_(ampere)	I_BPM_sum (Amps)	
________________________________________________________________________________

8.05199000E+5	2.55010605E+2	3.00000000E+0	1.50000000E+1	4.16800000E-13	4.76000000E-11	2.70900000E-8	8.94238370E-5
8.10180000E+5	2.55994068E+2	3.00000000E+0	1.50000000E+1	4.27000000E-13	4.86000000E-11	2.72880000E-8	8.95281541E-5
8.14338000E+5	2.56996063E+2	3.00000000E+0	1.50000000E+1	3.90900000E-13	4.91000000E-11	2.74020000E-8	8.93591510E-5
8.18492000E+5	2.58002830E+2	3.00000000E+0	1.50000000E+1	3.75200000E-13	4.96000000E-11	2.75570000E-8	8.93061595E-5
8.22652000E+5	2.58998088E+2	3.00000000E+0	1.50000000E+1	3.52100000E-13	5.02000000E-11	2.77070000E-8	8.96585512E-5
8.26820000E+5	2.59997719E+2	3.00000000E+0	1.50000000E+1	4.16600000E-13	5.07000000E-11	2.78740000E-8	8.93997090E-5
8.31005000E+5	2.60999443E+2	3.00000000E+0	1.50000000E+1	4.15500000E-13	5.12000000E-11	2.80630000E-8	8.96775919E-5
8.35146000E+5	2.61997170E+2	3.00000000E+0	1.50000000E+1	3.89700000E-13	5.17000000E-11	2.82330000E-8	8.92755823E-5
8.39313000E+5	2.63003411E+2	3.00000000E+0	1.50000000E+1	3.39300000E-13	5.23000000E-11	2.84420000E-8	8.94586938E-5
8.43482000E+5	2.64000230E+2	3.00000000E+0	1.50000000E+1	4.54100000E-13	5.30000000E-11	2.86880000E-8	8.92318594E-5
8.47638000E+5	2.64996508E+2	3.00000000E+0	1.50000000E+1	4.25000000E-13	5.37000000E-11	2.89680000E-8	8.94475030E-5
8.51804000E+5	2.66000050E+2	3.00000000E+0	1.50000000E+1	4.01900000E-13	5.44000000E-11	2.92230000E-8	8.93009292E-5
8.55959000E+5	2.66999160E+2	3.00000000E+0	1.50000000E+1	4.64300000E-13	5.52000000E-11	2.95290000E-8	8.93813985E-5
8.60117000E+5	2.68001906E+2	3.00000000E+0	1.50000000E+1	3.68800000E-13	5.60000000E-11	2.97870000E-8	8.90718328E-5
8.64281000E+5	2.69001482E+2	3.00000000E+0	1.50000000E+1	4.37600000E-13	5.68000000E-11	3.00580000E-8	8.95306187E-5
8.68435000E+5	2.70002660E+2	3.00000000E+0	1.50000000E+1	3.66900000E-13	5.76000000E-11	3.02440000E-8	8.89787363E-5
8.72592000E+5	2.70995183E+2	3.00000000E+0	1.50000000E+1	3.61600000E-13	5.84000000E-11	3.04280000E-8	8.93121170E-5
8.76769000E+5	2.72003741E+2	3.00000000E+0	1.50000000E+1	3.72300000E-13	5.91000000E-11	3.05310000E-8	8.96498727E-5
8.80946000E+5	2.72996894E+2	3.00000000E+0	1.50000000E+1	4.28300000E-13	5.99000000E-11	3.05290000E-8	8.94186335E-5
8.85111000E+5	2.74000899E+2	3.00000000E+0	1.50000000E+1	4.13300000E-13	6.05000000E-11	3.04440000E-8	8.92782914E-5
8.89273000E+5	2.75001246E+2	3.00000000E+0	1.50000000E+1	3.83800000E-13	6.11000000E-11	3.02260000E-8	8.91782479E-5
8.93437000E+5	2.75999715E+2	3.00000000E+0	1.50000000E+1	4.01200000E-13	6.18000000E-11	2.99840000E-8	8.96256732E-5
8.98401000E+5	2.77000814E+2	3.00000000E+0	1.50000000E+1	4.05500000E-13	6.22000000E-11	2.95360000E-8	8.97421199E-5
9.02567000E+5	2.77997459E+2	3.00000000E+0	1.50000000E+1	3.87000000E-13	6.26000000E-11	2.89600000E-8	8.95418602E-5
9.06721000E+5	2.78999598E+2	3.00000000E+0	1.50000000E+1	3.76900000E-13	6.30000000E-11	2.82380000E-8	8.93383013E-5
9.10890000E+5	2.80001940E+2	3.00000000E+0	1.50000000E+1	4.38700000E-13	6.33000000E-11	2.73830000E-8	8.93945055E-5
9.15057000E+5	2.81003381E+2	3.00000000E+0	1.50000000E+1	3.60900000E-13	6.37000000E-11	2.64560000E-8	8.97195923E-5
9.19244000E+5	2.82004111E+2	3.00000000E+0	1.50000000E+1	3.97500000E-13	6.41000000E-11	2.53200000E-8	8.97854823E-5
9.23417000E+5	2.82996780E+2	3.00000000E+0	1.50000000E+1	3.98500000E-13	6.45000000E-11	2.39840000E-8	8.97833216E-5
9.27557000E+5	2.84001964E+2	3.00000000E+0	1.50000000E+1	4.28900000E-13	6.47000000E-11	2.23500000E-8	8.94100117E-5
9.31770000E+5	2.84996520E+2	3.00000000E+0	1.50000000E+1	4.10700000E-13	6.48000000E-11	2.03410000E-8	8.98166495E-5
9.35933000E+5	2.85997452E+2	3.00000000E+0	1.50000000E+1	4.40000000E-13	6.44000000E-11	1.78220000E-8	8.96476763E-5
9.40132000E+5	2.86998178E+2	3.00000000E+0	1.50000000E+1	3.95100000E-13	6.45000000E-11	1.43460000E-8	8.93962669E-5
9.44287000E+5	2.87997275E+2	3.00000000E+0	1.50000000E+1	3.83600000E-13	6.87000000E-11	9.13500000E-9	8.93113720E-5
9.48478000E+5	2.88999595E+2	3.00000000E+0	1.50000000E+1	3.91900000E-13	9.15000000E-11	3.32300000E-9	8.93311398E-5
9.52641000E+5	2.90001695E+2	3.00000000E+0	1.50000000E+1	4.21800000E-13	1.26800000E-10	8.06000000E-10	8.93809544E-5
9.56816000E+5	2.91003240E+2	3.00000000E+0	1.50000000E+1	3.90300000E-13	1.47300000E-10	9.59000000E-10	8.97600043E-5
9.60972000E+5	2.91998727E+2	3.00000000E+0	1.50000000E+1	3.88500000E-13	1.69600000E-10	9.49000000E-10	8.96983939E-5
9.65155000E+5	2.92998103E+2	3.00000000E+0	1.50000000E+1	4.02000000E-13	1.91800000E-10	7.06000000E-10	8.95234662E-5
9.69346000E+5	2.93997287E+2	3.00000000E+0	1.50000000E+1	3.95100000E-13	1.97300000E-10	5.49000000E-10	8.94253748E-5
9.73519000E+5	2.95004166E+2	3.00000000E+0	1.50000000E+1	4.31700000E-13	1.91900000E-10	5.30000000E-10	8.94561725E-5
9.77726000E+5	2.95991159E+2	3.00000000E+0	1.50000000E+1	4.00000000E-13	1.85100000E-10	6.28000000E-10	8.96381753E-5
9.81900000E+5	2.97002322E+2	3.00000000E+0	1.50000000E+1	3.82500000E-13	1.85500000E-10	7.90000000E-10	8.94008117E-5
9.86106000E+5	2.98003127E+2	3.00000000E+0	1.50000000E+1	4.32300000E-13	1.93600000E-10	1.01800000E-9	8.98621338E-5
9.90282000E+5	2.99002771E+2	3.00000000E+0	1.50000000E+1	4.01800000E-13	2.03400000E-10	1.22400000E-9	8.96165895E-5
9.94467000E+5	2.99997989E+2	3.00000000E+0	1.50000000E+1	3.87600000E-13	2.12100000E-10	1.43000000E-9	8.93849301E-5
9.98614000E+5	3.00995381E+2	3.00000000E+0	1.50000000E+1	4.10500000E-13	2.19100000E-10	1.60500000E-9	8.91625660E-5
1.00281200E+6	3.01997155E+2	3.00000000E+0	1.50000000E+1	3.83100000E-13	2.24800000E-10	1.78000000E-9	8.95038354E-5
1.00700800E+6	3.02997853E+2	3.00000000E+0	1.50000000E+1	3.86800000E-13	2.30200000E-10	1.97400000E-9	8.97097069E-5
1.01115400E+6	3.03997849E+2	3.00000000E+0	1.50000000E+1	4.01100000E-13	2.35600000E-10	2.17600000E-9	8.97194045E-5
1.01532300E+6	3.05011466E+2	3.00000000E+0	1.50000000E+1	4.26400000E-13	2.40900000E-10	2.39300000E-9	8.97410619E-5
1.01949000E+6	3.06003963E+2	3.00000000E+0	1.50000000E+1	4.19100000E-13	2.46200000E-10	2.64100000E-9	8.94273328E-5
1.02364300E+6	3.06997631E+2	3.00000000E+0	1.50000000E+1	3.95700000E-13	2.51700000E-10	2.92300000E-9	8.94199329E-5
1.02785100E+6	3.08001584E+2	3.00000000E+0	1.50000000E+1	4.37700000E-13	2.57000000E-10	3.22300000E-9	8.94633698E-5
1.03205500E+6	3.08994526E+2	3.00000000E+0	1.50000000E+1	4.30000000E-13	2.62000000E-10	3.58800000E-9	8.94211160E-5
1.03623900E+6	3.10002979E+2	3.00000000E+0	1.50000000E+1	3.57700000E-13	2.67600000E-10	3.99200000E-9	8.94130039E-5
1.04037600E+6	3.11005050E+2	3.00000000E+0	1.50000000E+1	4.00100000E-13	2.73500000E-10	4.47500000E-9	8.90398251E-5
1.04453300E+6	3.11997044E+2	3.00000000E+0	1.50000000E+1	3.80700000E-13	2.80100000E-10	5.04800000E-9	8.95021903E-5
1.04872700E+6	3.13000419E+2	3.00000000E+0	1.50000000E+1	3.97000000E-13	2.87100000E-10	5.67200000E-9	8.95949649E-5
1.05287500E+6	3.13995090E+2	3.00000000E+0	1.50000000E+1	3.85200000E-13	2.94900000E-10	6.34700000E-9	8.94315975E-5
1.05703700E+6	3.15003105E+2	3.00000000E+0	1.50000000E+1	3.74800000E-13	3.02900000E-10	7.01800000E-9	8.94694882E-5
1.06119600E+6	3.16005446E+2	3.00000000E+0	1.50000000E+1	3.59000000E-13	3.10200000E-10	7.62400000E-9	8.92908858E-5
1.06536000E+6	3.16999784E+2	3.00000000E+0	1.50000000E+1	4.53500000E-13	3.16300000E-10	8.13400000E-9	8.93386739E-5
1.06952000E+6	3.17995831E+2	3.00000000E+0	1.50000000E+1	3.53500000E-13	3.20800000E-10	8.53500000E-9	8.91435491E-5
1.07371300E+6	3.18997465E+2	3.00000000E+0	1.50000000E+1	3.66600000E-13	3.24200000E-10	8.82500000E-9	8.93117981E-5
1.07788000E+6	3.19997920E+2	3.00000000E+0	1.50000000E+1	4.19600000E-13	3.26700000E-10	9.04700000E-9	8.92766195E-5
