G:\BEAR_storage\User_Experiments\20210802_arneodo\Bpm\file(1)_bpm_0011.txt
Ring Energy (GeV): 2
Lifetime (hours): 22.9211
Scan beginning: 8/4/2021	8:56:01 AM
Ring current (mA): 228.6
Source position: x (mm): 0.003 x' (mrad): -0.002 y (mm): 0.004 y' (mrad): 0.003
Scan end: 8/4/2021	9:00:25 AM
Ring current (mA): 228.67
Source position: x (mm): 0.005 x' (mrad): -0.003 y (mm): 0.004 y' (mrad): 0.003

SCAN TYPE: PHI_A

FILE INFO: FILE INFO:

SCAN PARAMETERS
waiting time (ms): 1000
Number of scans: 1
Current scan number: 1
DARK OFF 
PREDARK OFF 

SCAN PARAMETERS
Initial Phi analyzer (degrees): -2.000000E+0
Delta Phi analyzer (degrees): 250.000000E-3
Final Phi analyzer (degrees): 6.000000E+0


BEAR MONOCHROMATOR CONFIGURATION: 
Current Grating Position:     186458.60
Current Mirror Position: 10000.0
Current Grating: GNIM
P2 phiz position:  -0.0141
Mono axis position: 73.5000
Current Photon Energy (eV): 30.000
Current Deviation Angle: 29.905
Vertical Exit Slits (um): 100.000
Exit slit y axis position: 1.3625
Horizontal Exit Slits (um):  890.000
Exit slit z axis position: 1.9250
Mitutoyo position (mm): 

Dose on sample (mJ/cm^2): NaN

ENERGY CALIBRATION:
offset grating G1200: yes
Delta 0 order G1200:  -800.0
offset grating G1800: not
Delta 0 order G1800:  0.0
offset grating GNIM: not
Delta 0 order GNIM:  0.0
ZERO ORDER POSITIONS:
Grating G1200: Mirror position:  4938.0
Grating position: -106855.0
Grating G1800: 
Mirror position:  4938.0
Grating position: -106345.0
Grating GNIM: 
Mirror position:  10000.0
Grating position: 227300.0

Initial filter: Al filter

EXPERIMENTAL CHAMBER CONFIGURATION: 
PsiC (deg):   -0.003530
Phi Analyzer (degrees): 2.440620
Theta Manipulator (degrees): -0.000010
Theta Analyzer (degrees): -59.120032
PhiM (degrees): -0.003077
XM (mm): -10.999887
YM (mm): 23.998763
ZM (mm): (Warning: for kinetic energy scans, 
this parameter is given in the scan settings) 
-17.342762
TiltM (°): 0.000412

COIL VALUES
Ix (amps):2.820
Iy (amps): 0.000
Iz (amps): 37.530

POLARIZATION SELECTOR CONFIGURATION:
Psi1 (rad): -0.001665535
Psi2 (rad): 0.001417093
Z min position (mm): 46.599650
DZ position (mm): 18.599100
Zmin 0 (mm): 65.700000
DZ0 (mm): 54.000000

BEAM SELECTOR CONFIGURATION:
Zmin position (mm): NaN
DZ position (mm): NaN
Y+ position (mm): NaN
Y- position (mm): NaN

CHANNEL ELECTRON MULTIPLIER CONFIGURATION:
CEM configured: OFF
Bias CEM: 0.000000

FLUORESCENCE DETECTOR CONFIGURATION:
Not configured

LUMINESCENCE MONOCHROMATOR CONFIGURATION:
Optical fiber position (mm): 0.000000
Optical fiber Switch inside: ON
Optical fiber Switch outside: ON
Monochromator wavelength (A): 0.000000
Limit Switches: ON

I0 MONITOR PARAMETERS:
I0 detector position(mm): NaN
Lower switch: OFF
Upper switch: OFF
Valve status:open

PRESSURE PARAMETERS:
Monitor chamber pressure (mbar): 1.405e-09
Experimental chamber pressure -ION GAUGE-(mbar): 0.000000E+0

XMCD PARAMETERS:
Xmcd OFF
Xmcd Direction -
Xmcd current (A): 0.000000

Gated scan off

Instrument 1: AMMETER KEITHLEY 6517A B
Measure type: Current
range type: set range value
range value (ampere):  200 nA
Integration time:  set NPLC value
NPLC value: 10.000
Digital filter count: 5
SAMPLE BIAS (V): -0.000
Vsource: ON
Output Voltage value: 0.000
Vsource range: 100 V

Instrument 2: AMMETER KEITHLEY 6517A A
Measure type: Current
range type: set range value
range value (ampere):  200 pA
Integration time:  set NPLC value
NPLC value: 10.000
Digital filter count: 2
Vsource: OFF
Output Voltage value: -0.000
Vsource range: 100 V
Trigger source: bus

Range Keithley A changed to 20 nA

Range Keithley A changed to 200 pA

Range Keithley A changed to 20 nA

Range Keithley A changed to 200 pA

Range Keithley A changed to 20 nA

Range Keithley A changed to 200 pA

Range Keithley A changed to 20 nA

Range Keithley A changed to 200 pA

Range Keithley A changed to 20 nA

Range Keithley A changed to 200 pA

Range Keithley A changed to 20 nA

Range Keithley A changed to 200 pA

Range Keithley A changed to 20 nA

Range Keithley A changed to 200 pA

Range Keithley A changed to 20 nA

Range Keithley A changed to 200 pA

Range Keithley A changed to 20 nA

Range Keithley A changed to 200 pA

Range Keithley A changed to 20 nA

Range Keithley A changed to 200 pA

Range Keithley A changed to 20 nA

Range Keithley A changed to 200 pA

Range Keithley A changed to 20 nA

Instrument 3: None


________________________________________________________________________________

RelativeTime (msec)	Number	Time (msec)	Phi Analyzer (°)	a) I_1 (Amps)	b) I_2 (Amps)	d) I_3 (Amps)	c) I_4 (Amps)	I_BPM_sum (Amps)	Delta Z(mm)	
________________________________________________________________________________

6.30100000E+3	0.00000000E+0	-2.08006671E+10	-1.99454648E+0	1.23361662E-5	6.67007347E-6	2.49689013E-5	2.06847335E-5	6.46598744E-5	3.45774729E-4
1.58630000E+4	1.00000000E+0	-2.01506365E+10	-1.74546494E+0	1.21272042E-5	6.67771777E-6	2.50373155E-5	2.05737794E-5	6.44160169E-5	3.44470678E-4
2.38660000E+4	2.00000000E+0	-1.95006075E+10	-1.49638340E+0	1.21222332E-5	6.68051620E-6	2.49696165E-5	2.07114781E-5	6.44838440E-5	3.44833390E-4
3.18170000E+4	3.00000000E+0	-1.88505785E+10	-1.24824894E+0	1.21687814E-5	6.68999036E-6	2.49678343E-5	2.07623447E-5	6.45889508E-5	3.45395459E-4
3.98070000E+4	4.00000000E+0	-1.82005494E+10	-9.99167396E-1	1.22597649E-5	6.70796713E-6	2.50227392E-5	2.07044805E-5	6.46949517E-5	3.45962309E-4
4.78050000E+4	5.00000000E+0	-1.75505204E+10	-7.50085855E-1	1.22556254E-5	6.64825817E-6	2.49371976E-5	2.06276471E-5	6.44687282E-5	3.44752557E-4
5.57510000E+4	6.00000000E+0	-1.69004914E+10	-5.00057237E-1	1.21429577E-5	6.62287851E-6	2.50438988E-5	2.04559112E-5	6.42656463E-5	3.43666557E-4
6.38120000E+4	7.00000000E+0	-1.62504623E+10	-2.50028618E-1	1.22663930E-5	6.63240035E-6	2.49702871E-5	2.07262422E-5	6.45953226E-5	3.45429532E-4
7.17820000E+4	8.00000000E+0	-1.56004333E+10	-1.89415620E-3	1.21172800E-5	6.68602069E-6	2.51064569E-5	2.07048024E-5	6.46145600E-5	3.45532406E-4
7.97260000E+4	9.00000000E+0	-1.49504043E+10	2.47187384E-1	1.21811464E-5	6.66703661E-6	2.49495178E-5	2.07421119E-5	6.45398127E-5	3.45132688E-4
8.76790000E+4	1.00000000E+1	-1.43003753E+10	4.95321846E-1	1.21904954E-5	6.67930027E-6	2.49448717E-5	2.07177604E-5	6.45324277E-5	3.45093196E-4
9.56320000E+4	1.10000000E+1	-1.36503463E+10	7.44403387E-1	1.22675672E-5	6.67858203E-6	2.52055556E-5	2.08400453E-5	6.49917501E-5	3.47549466E-4
1.03698000E+5	1.20000000E+1	-1.30003172E+10	9.94432005E-1	1.22477665E-5	6.70223316E-6	2.49878615E-5	2.07281733E-5	6.46660345E-5	3.45807671E-4
1.11680000E+5	1.30000000E+1	-1.23502882E+10	1.24351355E+0	1.21481761E-5	6.68880423E-6	2.50692934E-5	2.07671667E-5	6.46734404E-5	3.45847275E-4
1.19706000E+5	1.40000000E+1	-1.17002591E+10	1.49259509E+0	1.20815381E-5	6.69657966E-6	2.50613749E-5	2.06639553E-5	6.45034480E-5	3.44938224E-4
1.27704000E+5	1.50000000E+1	-1.10502300E+10	1.74072955E+0	1.22517630E-5	6.71023508E-6	2.51053423E-5	2.09074820E-5	6.49748224E-5	3.47458943E-4
1.35706000E+5	1.60000000E+1	-1.04002010E+10	1.98981109E+0	1.22247561E-5	6.69214805E-6	2.50394732E-5	2.08182390E-5	6.47746163E-5	3.46388323E-4
1.43701000E+5	1.70000000E+1	-9.75017196E+9	2.23794555E+0	1.22450545E-5	6.65448685E-6	2.49968588E-5	2.06721569E-5	6.45685571E-5	3.45286402E-4
1.51692000E+5	1.80000000E+1	-9.10014292E+9	2.48797417E+0	1.23301908E-5	6.65504714E-6	2.50366777E-5	2.07871790E-5	6.48090946E-5	3.46572699E-4
1.59694000E+5	1.90000000E+1	-8.45011388E+9	2.73800279E+0	1.21626064E-5	6.68317457E-6	2.50801057E-5	2.06740166E-5	6.45999032E-5	3.45454028E-4
1.67726000E+5	2.00000000E+1	-7.80008480E+9	2.98708433E+0	1.22628882E-5	6.71344479E-6	2.50845462E-5	2.08069051E-5	6.48677844E-5	3.46886547E-4
1.75711000E+5	2.10000000E+1	-7.15005577E+9	3.23616587E+0	1.21855810E-5	6.70258483E-6	2.49673575E-5	2.06606085E-5	6.45161318E-5	3.45006053E-4
1.83707000E+5	2.20000000E+1	-6.50002673E+9	3.48524741E+0	1.21290549E-5	6.69818898E-6	2.51168043E-5	2.07538093E-5	6.46978575E-5	3.45977847E-4
1.91854000E+5	2.30000000E+1	-5.84999754E+9	3.73432895E+0	1.21556386E-5	6.66949530E-6	2.48129070E-5	2.06907893E-5	6.43288302E-5	3.44004439E-4
1.99850000E+5	2.40000000E+1	-5.19996850E+9	3.98246341E+0	1.21661380E-5	6.63080593E-6	2.50215888E-5	2.07772906E-5	6.45958232E-5	3.45432210E-4
2.07890000E+5	2.50000000E+1	-4.54993942E+9	4.23249203E+0	1.21797189E-5	6.65730615E-6	2.51190752E-5	2.07146103E-5	6.46707105E-5	3.45832677E-4
2.15847000E+5	2.60000000E+1	-3.89991042E+9	4.48157357E+0	1.22402653E-5	6.69496735E-6	2.50010908E-5	2.07941646E-5	6.47304880E-5	3.46152342E-4
2.23857000E+5	2.70000000E+1	-3.24988136E+9	4.73065511E+0	1.22084632E-5	6.67910655E-6	2.50647277E-5	2.07542176E-5	6.47065150E-5	3.46024145E-4
2.31863000E+5	2.80000000E+1	-2.59985231E+9	4.97973665E+0	1.21035441E-5	6.68701609E-6	2.48690873E-5	2.08090837E-5	6.44687312E-5	3.44752573E-4
2.39854000E+5	2.90000000E+1	-1.94982328E+9	5.22787111E+0	1.21566400E-5	6.62631769E-6	2.50658095E-5	2.06441606E-5	6.44929277E-5	3.44881966E-4
2.47859000E+5	3.00000000E+1	-1.29979423E+9	5.47695265E+0	1.22265741E-5	6.65561636E-6	2.49959081E-5	2.07086379E-5	6.45867365E-5	3.45383618E-4
2.55866000E+5	3.10000000E+1	-6.49765178E+8	5.72508711E+0	1.22445360E-5	6.67130133E-6	2.49653399E-5	2.07452799E-5	6.46264571E-5	3.45596027E-4
2.63870000E+5	3.20000000E+1	2.63870000E+5	5.97511573E+0	1.20421960E-5	6.67590280E-6	2.49207169E-5	2.06730033E-5	6.43118190E-5	3.43913471E-4
