G:\BEAR_storage\User_Experiments\20210802_arneodo\Bpm\file(1)_bpm_0010.txt
Ring Energy (GeV): 2
Lifetime (hours): 22.8309
Scan beginning: 8/4/2021	8:51:51 AM
Ring current (mA): 229.3
Source position: x (mm): 0.003 x' (mrad): -0.002 y (mm): 0.004 y' (mrad): 0.003
Scan end: 8/4/2021	8:54:45 AM
Ring current (mA): 228.81
Source position: x (mm): 0.003 x' (mrad): -0.002 y (mm): 0.004 y' (mrad): 0.003

SCAN TYPE: THETAA

FILE INFO: FILE INFO:

SCAN PARAMETERS
waiting time (ms): 1000
Number of scans: 1
Current scan number: 1
DARK OFF 
PREDARK OFF 

SCAN PARAMETERS
Initial Theta analyzer (degrees): -61.000000E+0
Delta Theta analyzer (degrees): 200.000000E-3
Final Theta analyzer (degrees): -57.000000E+0


BEAR MONOCHROMATOR CONFIGURATION: 
Current Grating Position:     186458.60
Current Mirror Position: 10000.1
Current Grating: GNIM
P2 phiz position:  -0.0141
Mono axis position: 73.5000
Current Photon Energy (eV): 30.000
Current Deviation Angle: 29.905
Vertical Exit Slits (um): 100.000
Exit slit y axis position: 1.3625
Horizontal Exit Slits (um):  890.000
Exit slit z axis position: 1.9250
Mitutoyo position (mm): 

Dose on sample (mJ/cm^2): NaN

ENERGY CALIBRATION:
offset grating G1200: yes
Delta 0 order G1200:  -800.0
offset grating G1800: not
Delta 0 order G1800:  0.0
offset grating GNIM: not
Delta 0 order GNIM:  0.0
ZERO ORDER POSITIONS:
Grating G1200: Mirror position:  4938.0
Grating position: -106855.0
Grating G1800: 
Mirror position:  4938.0
Grating position: -106345.0
Grating GNIM: 
Mirror position:  10000.0
Grating position: 227300.0

Initial filter: Al filter

EXPERIMENTAL CHAMBER CONFIGURATION: 
PsiC (deg):   -0.003530
Phi Analyzer (degrees): 2.442514
Theta Manipulator (degrees): -0.000010
Theta Analyzer (degrees): -59.130077
PhiM (degrees): -0.003077
XM (mm): -10.999863
YM (mm): 23.998812
ZM (mm): (Warning: for kinetic energy scans, 
this parameter is given in the scan settings) 
-17.342762
TiltM (°): 0.000412

COIL VALUES
Ix (amps):2.820
Iy (amps): 0.000
Iz (amps): 37.530

POLARIZATION SELECTOR CONFIGURATION:
Psi1 (rad): -0.001665535
Psi2 (rad): 0.001417093
Z min position (mm): 46.599650
DZ position (mm): 18.599100
Zmin 0 (mm): 65.700000
DZ0 (mm): 54.000000

BEAM SELECTOR CONFIGURATION:
Zmin position (mm): NaN
DZ position (mm): NaN
Y+ position (mm): NaN
Y- position (mm): NaN

CHANNEL ELECTRON MULTIPLIER CONFIGURATION:
CEM configured: OFF
Bias CEM: 0.000000

FLUORESCENCE DETECTOR CONFIGURATION:
Not configured

LUMINESCENCE MONOCHROMATOR CONFIGURATION:
Optical fiber position (mm): 0.000000
Optical fiber Switch inside: ON
Optical fiber Switch outside: ON
Monochromator wavelength (A): 0.000000
Limit Switches: ON

I0 MONITOR PARAMETERS:
I0 detector position(mm): NaN
Lower switch: OFF
Upper switch: OFF
Valve status:open

PRESSURE PARAMETERS:
Monitor chamber pressure (mbar): 1.413e-09
Experimental chamber pressure -ION GAUGE-(mbar): 0.000000E+0

XMCD PARAMETERS:
Xmcd OFF
Xmcd Direction -
Xmcd current (A): 0.000000

Gated scan off

Instrument 1: AMMETER KEITHLEY 6517A B
Measure type: Current
range type: set range value
range value (ampere):  200 nA
Integration time:  set NPLC value
NPLC value: 10.000
Digital filter count: 5
SAMPLE BIAS (V): -0.000
Vsource: ON
Output Voltage value: 0.000
Vsource range: 100 V

Instrument 2: AMMETER KEITHLEY 6517A A
Measure type: Current
range type: set range value
range value (ampere):  200 pA
Integration time:  set NPLC value
NPLC value: 10.000
Digital filter count: 2
Vsource: OFF
Output Voltage value: -0.000
Vsource range: 100 V
Trigger source: bus

Range Keithley A changed to 20 nA

Range Keithley A changed to 200 pA

Range Keithley A changed to 20 nA

Range Keithley A changed to 200 pA

Range Keithley A changed to 20 nA

Range Keithley A changed to 200 pA

Range Keithley A changed to 20 nA

Range Keithley A changed to 200 pA

Range Keithley A changed to 20 nA

Range Keithley A changed to 200 pA

Range Keithley A changed to 20 nA

Range Keithley A changed to 200 pA

Range Keithley A changed to 20 nA

Range Keithley A changed to 200 pA

Range Keithley A changed to 20 nA

Range Keithley A changed to 200 pA

Range Keithley A changed to 20 nA

Range Keithley A changed to 200 pA

Range Keithley A changed to 20 nA

Range Keithley A changed to 200 pA

Range Keithley A changed to 20 nA

Range Keithley A changed to 200 pA

Range Keithley A changed to 20 nA

Instrument 3: None


________________________________________________________________________________

RelativeTime (msec)	Number	Time (msec)	Theta Analyzer (°)	a) I_1 (Amps)	b) I_2 (Amps)	d) I_3 (Amps)	c) I_4 (Amps)	I_BPM_sum (Amps)	Delta Z(mm)	
________________________________________________________________________________

6.36200000E+3	0.00000000E+0	-1.29954279E+10	-6.09999782E+1	1.22349038E-5	6.71965262E-6	2.49304861E-5	2.07791681E-5	6.46642106E-5	3.45797918E-4
1.60920000E+4	1.00000000E+0	-1.23456464E+10	-6.07999995E+1	1.22454956E-5	6.69470807E-6	2.50952929E-5	2.08259488E-5	6.48614454E-5	3.46852649E-4
2.43930000E+4	2.00000000E+0	-1.16958664E+10	-6.05999844E+1	1.21418967E-5	6.66896184E-6	2.52077282E-5	2.07828874E-5	6.48014742E-5	3.46531948E-4
3.26670000E+4	3.00000000E+0	-1.10460864E+10	-6.04000056E+1	1.22778907E-5	6.66669687E-6	2.49598592E-5	2.06890787E-5	6.45935255E-5	3.45419922E-4
4.10140000E+4	4.00000000E+0	-1.03963064E+10	-6.01999905E+1	1.22878477E-5	6.66858931E-6	2.49913752E-5	2.08243902E-5	6.47722023E-5	3.46375414E-4
4.93080000E+4	5.00000000E+0	-9.74652637E+9	-5.99999935E+1	1.22450456E-5	6.67290171E-6	2.51050323E-5	2.07707281E-5	6.47937077E-5	3.46490416E-4
5.75710000E+4	6.00000000E+0	-9.09674640E+9	-5.98000148E+1	1.23026803E-5	6.68268879E-6	2.50973910E-5	2.08025599E-5	6.48853201E-5	3.46980321E-4
6.58360000E+4	7.00000000E+0	-8.44696642E+9	-5.95999996E+1	1.21691748E-5	6.66533788E-6	2.50723481E-5	2.07324977E-5	6.46393585E-5	3.45665019E-4
7.41010000E+4	8.00000000E+0	-7.79718644E+9	-5.93999845E+1	1.22262522E-5	6.65276726E-6	2.50330091E-5	2.07872863E-5	6.46993148E-5	3.45985641E-4
8.24190000E+4	9.00000000E+0	-7.14740641E+9	-5.91999875E+1	1.22461840E-5	6.69823071E-6	2.50807822E-5	2.07175667E-5	6.47427636E-5	3.46217987E-4
9.06970000E+4	1.00000000E+1	-6.49762642E+9	-5.90000088E+1	1.21254816E-5	6.65105959E-6	2.48648226E-5	2.07029606E-5	6.43443244E-5	3.44087296E-4
9.89440000E+4	1.10000000E+1	-5.84784646E+9	-5.87999936E+1	1.22297689E-5	6.66450640E-6	2.50296265E-5	2.07452322E-5	6.46691340E-5	3.45824246E-4
1.07219000E+5	1.20000000E+1	-5.19806648E+9	-5.85999967E+1	1.22430697E-5	6.69003805E-6	2.50857622E-5	2.06300402E-5	6.46489101E-5	3.45716097E-4
1.15490000E+5	1.30000000E+1	-4.54828649E+9	-5.84000179E+1	1.22366324E-5	6.72304412E-6	2.50285327E-5	2.08072777E-5	6.47954869E-5	3.46499930E-4
1.23881000E+5	1.40000000E+1	-3.89850639E+9	-5.82000028E+1	1.21973052E-5	6.67305668E-6	2.50797600E-5	2.07789416E-5	6.47290635E-5	3.46144724E-4
1.32199000E+5	1.50000000E+1	-3.24872636E+9	-5.80000059E+1	1.21665999E-5	6.64860983E-6	2.49515533E-5	2.06620301E-5	6.44287931E-5	3.44539001E-4
1.40478000E+5	1.60000000E+1	-2.59894637E+9	-5.77999907E+1	1.22029587E-5	6.68105563E-6	2.50288427E-5	2.07276339E-5	6.46404910E-5	3.45671075E-4
1.48716000E+5	1.70000000E+1	-1.94916642E+9	-5.76000120E+1	1.21687010E-5	6.68746611E-6	2.50086755E-5	2.08240057E-5	6.46888482E-5	3.45929670E-4
1.56993000E+5	1.80000000E+1	-1.29938643E+9	-5.74000150E+1	1.22352913E-5	6.66043242E-6	2.49130785E-5	2.06437165E-5	6.44525188E-5	3.44665876E-4
1.65298000E+5	1.90000000E+1	-6.49606414E+8	-5.72000181E+1	1.21416077E-5	6.65539582E-6	2.49639273E-5	2.07350100E-5	6.44959407E-5	3.44898079E-4
1.73603000E+5	2.00000000E+1	1.73603000E+5	-5.69999847E+1	1.20402529E-5	6.68946286E-6	2.49068946E-5	2.07816924E-5	6.44183027E-5	3.44482902E-4
